3mm_PMMA_FCR_1
Integration time [ms]: 100,000
Averaging Nr. [scans]: 1
Smoothing Nr. [pixels]: 0
Data measured with spectrometer [name]: 1204091U1
Wave   ;Sample   ;Dark     ;Reference;Reflectance
[nm]   ;[counts] ;[counts] ;[counts] ;[%]

1014,48;11475,000; 2159,000; 6686,000;205,78750
1019,01;12245,000; 2263,000; 7134,000;204,92712
1023,54;12953,000; 2460,000; 7582,000;204,86138
1028,07;13330,000; 2357,000; 7740,000;203,84544
1032,59;13848,000; 2222,000; 7947,000;203,07424
1037,10;14687,000; 2251,000; 8409,000;201,94868
1041,62;15328,000; 2335,000; 8775,000;201,75466
1046,12;16392,000; 2824,000; 9555,000;201,57480
1050,62;16321,000; 2300,000; 9240,000;202,03170
1055,12;16678,000; 2181,000; 9387,000;201,17957
1059,62;16855,000; 2009,000; 9358,000;202,01388
1064,10;17770,000; 2401,000;10031,000;201,42857
1068,59;18338,000; 2570,000;10411,000;201,09680
1073,07;18774,000; 2356,000;10516,000;201,20098
1077,54;19067,000; 2278,000;10631,000;200,99365
1082,01;19699,000; 2486,000;11025,000;201,58098
1086,48;20177,000; 2488,000;11325,000;200,16974
1090,94;19955,000; 2081,000;10975,000;200,96694
1095,39;21507,000; 3026,000;12290,000;199,49266
1099,85;21299,000; 2345,000;11921,000;197,93233
1104,29;21661,000; 2403,000;12226,000;196,05009
1108,73;21556,000; 2060,000;12064,000;194,88205
1113,17;22239,000; 2768,000;12897,000;192,23023
1117,61;21943,000; 2351,000;12709,000;189,14848
1122,03;22115,000; 2714,000;13178,000;185,40711
1126,46;21486,000; 2237,000;12873,000;180,97969
1130,88;21194,000; 2154,000;12946,000;176,42698
1135,29;21509,000; 2780,000;13624,000;172,71302
1139,70;20773,000; 2109,000;13204,000;168,21992
1144,11;20615,000; 2181,000;13375,000;164,67751
1148,51;20401,000; 2244,000;13522,000;160,99486
1152,90;20053,000; 2301,000;13707,000;155,63738
1157,29;19324,000; 2006,000;13470,000;151,06420
1161,68;19268,000; 2262,000;13824,000;147,08528
1166,06;18903,000; 2248,000;13803,000;144,13674
1170,44;18802,000; 2494,000;13961,000;142,21680
1174,81;18190,000; 2196,000;13387,000;142,91842
1179,18;18786,000; 2339,000;13505,000;147,29536
1183,54;19464,000; 2531,000;13570,000;153,39252
1187,90;20135,000; 2580,000;13523,000;160,42219
1192,25;20331,000; 2379,000;13172,000;166,33003
1196,60;20561,000; 2222,000;12903,000;171,69741
1200,94;21029,000; 2485,000;12994,000;176,45827
1205,28;20916,000; 2285,000;12529,000;181,87232
1209,62;21503,000; 2418,000;12639,000;186,72341
1213,95;21765,000; 2543,000;12596,000;191,20660
1218,27;21388,000; 2113,000;12057,000;193,83548
1222,59;21534,000; 2762,000;12319,000;196,42147
1226,91;21354,000; 2482,000;12036,000;197,52983
1231,22;20969,000; 2269,000;11621,000;199,95723
1235,52;20388,000; 1935,000;11126,000;200,77249
1239,82;20494,000; 2360,000;11354,000;201,62330
1244,12;20039,000; 2191,000;10953,000;203,69779
1248,41;20319,000; 2519,000;11152,000;206,18557
1252,70;19276,000; 1808,000;10246,000;207,01588
1256,98;19462,000; 2069,000;10481,000;206,76415
1261,26;19913,000; 2578,000;10887,000;208,62920
1265,53;19001,000; 1911,000;10040,000;210,23496
1269,80;19181,000; 2085,000;10196,000;210,77549
1274,06;19250,000; 2472,000;10429,000;210,85836
1278,32;18913,000; 2246,000;10116,000;211,77891
1282,57;18906,000; 2315,000;10115,000;212,70513
1286,82;18586,000; 2159,000; 9878,000;212,81254
1291,06;18678,000; 2434,000; 9974,000;215,43767
1295,30;18541,000; 2354,000; 9886,000;214,90972
1299,53;18764,000; 2461,000;10030,000;215,39173
1303,76;18489,000; 2315,000; 9771,000;216,92597
1307,99;18787,000; 2633,000;10041,000;218,06156
1312,20;18371,000; 2539,000; 9875,000;215,81243
1316,42;17542,000; 2175,000; 9339,000;214,50307
1320,63;17268,000; 2246,000; 9303,000;212,86666
1324,83;16410,000; 1875,000; 8811,000;209,55882
1329,03;16125,000; 2294,000; 9122,000;202,56298
1333,23;15179,000; 2137,000; 8853,000;194,19297
1337,42;14729,000; 2453,000; 9095,000;184,82385
1341,60;13488,000; 2063,000; 8573,000;175,49923
1345,78;13341,000; 2407,000; 8779,000;171,59448
1349,96;12634,000; 1977,000; 8295,000;168,67680
1354,13;12533,000; 2218,000; 8428,000;166,10306
1358,29;12138,000; 2040,000; 8181,000;164,43576
1362,46;12060,000; 2455,000; 8370,000;162,38377
1366,61;11672,000; 2409,000; 8197,000;160,03801
1370,76;11127,000; 2106,000; 7751,000;159,80514
1374,91;11416,000; 2653,000; 8072,000;161,70880
1379,05;10527,000; 2056,000; 7236,000;163,53282
1383,18;11304,000; 2983,000; 8057,000;163,99291
1387,32;10376,000; 2042,000; 7174,000;162,39283
1391,44;10457,000; 2029,000; 7155,000;164,41670
1395,56;11404,000; 2838,000; 7994,000;166,13654
1399,68;10765,000; 1864,000; 7116,000;169,47829
1403,79;11052,000; 2045,000; 7382,000;168,76522
1407,90;10956,000; 1975,000; 7279,000;169,32504
1412,00;11084,000; 2064,000; 7433,000;168,00149
1416,10;11378,000; 2407,000; 7775,000;167,11997
1420,19;11100,000; 2106,000; 7422,000;169,18736
1424,27;11228,000; 2292,000; 7597,000;168,44486
1428,36;11432,000; 2373,000; 7627,000;172,42101
1432,43;11654,000; 2538,000; 7760,000;174,56913
1436,50;11453,000; 2221,000; 7397,000;178,36167
1440,57;11812,000; 2379,000; 7559,000;182,10425
1444,63;11538,000; 2054,000; 7190,000;184,65732
1448,69;11596,000; 1832,000; 6909,000;192,31830
1452,74;12161,000; 2149,000; 7178,000;199,08531
1456,79;11922,000; 1924,000; 6934,000;199,56088
1460,83;12082,000; 2085,000; 7017,000;202,69667
1464,87;12387,000; 2389,000; 7273,000;204,70925
1468,90;12424,000; 2366,000; 7250,000;205,93776
1472,93;12188,000; 2274,000; 7073,000;206,58471
1476,95;12299,000; 2304,000; 7073,000;209,58272
1480,96;11941,000; 2026,000; 6740,000;210,33093
1484,98;12247,000; 2214,000; 6916,000;213,37729
1488,98;12150,000; 2321,000; 6981,000;210,92275
1492,98;12214,000; 2415,000; 6974,000;214,93749
1496,98;11803,000; 2066,000; 6594,000;215,03975
1500,97;12086,000; 2503,000; 6934,000;216,27172
1504,96;11573,000; 1869,000; 6310,000;218,50934
1508,94;12131,000; 2442,000; 6874,000;218,61462
1512,92;11699,000; 2047,000; 6459,000;218,76700
1516,89;11813,000; 2181,000; 6559,000;220,00914
1520,85;11737,000; 2039,000; 6397,000;222,53327
1524,81;12250,000; 2622,000; 6923,000;223,85492
1528,77;11531,000; 1993,000; 6335,000;219,66836
1532,72;11631,000; 2083,000; 6385,000;221,94328
1536,67;11906,000; 2574,000; 6827,000;219,42158
1540,61;11134,000; 2053,000; 6158,000;221,21803
1544,54;11471,000; 2397,000; 6559,000;218,02018
1548,47;10837,000; 1870,000; 5963,000;219,08136
1552,40;10969,000; 2311,000; 6340,000;214,89203
1556,32;10997,000; 2289,000; 6299,000;217,15711
1560,23;10681,000; 2216,000; 6063,000;220,04159
1564,15;10775,000; 2266,000; 6123,000;220,61187
1568,05;10434,000; 2111,000; 5937,000;217,53790
1571,95;10648,000; 2431,000; 6174,000;219,52979
1575,84;10322,000; 2066,000; 5767,000;223,07484
1579,73;10276,000; 2334,000; 5973,000;218,24677
1583,62;10047,000; 2251,000; 5853,000;216,43531
1587,50; 9591,000; 1973,000; 5552,000;212,85275
1591,37;10004,000; 2501,000; 6051,000;211,35211
1595,24; 9579,000; 2195,000; 5695,000;210,97143
1599,11; 9174,000; 1935,000; 5426,000;207,36179
1602,96; 9155,000; 2027,000; 5422,000;209,95582
1606,82; 8897,000; 1926,000; 5276,000;208,08955
1610,67; 8978,000; 2202,000; 5507,000;205,02269
1614,51; 9037,000; 2375,000; 5635,000;204,35583
1618,35; 8289,000; 1955,000; 5143,000;198,68256
1622,18; 8347,000; 2163,000; 5307,000;196,69211
1626,01; 8166,000; 2191,000; 5286,000;193,05331
1629,83; 8031,000; 2237,000; 5309,000;188,60677
1633,65; 8012,000; 2363,000; 5411,000;185,33465
1637,46; 7428,000; 2065,000; 5041,000;180,20833
1641,27; 7233,000; 2043,000; 4995,000;175,81301
1645,07; 6839,000; 2025,000; 4923,000;166,11456
1648,86; 6309,000; 2022,000; 4872,000;150,42105
1652,66; 5976,000; 2009,000; 4849,000;139,68310
1656,44; 5602,000; 2080,000; 4866,000;126,41780
1660,22; 5526,000; 2279,000; 5011,000;118,85066
1664,00; 5481,000; 2386,000; 5119,000;113,24552
1667,77; 5048,000; 2147,000; 4820,000;108,52974
1671,53; 4818,000; 2096,000; 4676,000;105,50388
1675,29; 4723,000; 1956,000; 4597,000;104,77092
1679,05; 4955,000; 2235,000; 4841,000;104,37452
1682,80; 4802,000; 2121,000; 4673,000;105,05486
1686,54; 5020,000; 2345,000; 4882,000;105,43950
1690,28; 5033,000; 2330,000; 4848,000;107,34710
1694,01; 4591,000; 1942,000; 4390,000;108,21078
1697,74; 4753,000; 2079,000; 4510,000;109,99589
1701,46; 4875,000; 2282,000; 4676,000;108,31245
1705,18; 4606,000; 2006,000; 4351,000;110,87420
1708,89; 4436,000; 1911,000; 4242,000;108,32261
1712,60; 4841,000; 2253,000; 4569,000;111,74439
1716,30; 4780,000; 2295,000; 4547,000;110,34636
1720,00; 4761,000; 2337,000; 4572,000;108,45638
1723,69; 4753,000; 2261,000; 4469,000;112,86232
1727,38; 4480,000; 1905,000; 4079,000;118,44526
1731,06; 4770,000; 2204,000; 4366,000;118,68640
1734,73; 4714,000; 2153,000; 4269,000;121,03025
1738,40; 4594,000; 1998,000; 4086,000;124,32950
1742,07; 5008,000; 2398,000; 4492,000;124,64183
1745,73; 4782,000; 2036,000; 4113,000;132,20992
1749,38; 5013,000; 2316,000; 4333,000;133,71344
1753,03; 5027,000; 2360,000; 4336,000;134,96964
1756,67; 4857,000; 2169,000; 4109,000;138,55670
1760,31; 5068,000; 2287,000; 4202,000;145,22193
1763,94; 5027,000; 2226,000; 4114,000;148,35805
1767,57; 4912,000; 2202,000; 4056,000;146,17044
1771,19; 4797,000; 2090,000; 3874,000;151,73767
1774,81; 4866,000; 2248,000; 4032,000;146,74888
1778,42; 4826,000; 2269,000; 4027,000;145,44937
1782,03; 4657,000; 2095,000; 3823,000;148,26389
1785,63; 4586,000; 2035,000; 3722,000;151,21517
1789,22; 4622,000; 2111,000; 3791,000;149,46429
1792,81; 4489,000; 1992,000; 3582,000;157,04403
1796,40; 4437,000; 1886,000; 3487,000;159,33791
1799,98; 5054,000; 2449,000; 4025,000;165,29188
1803,55; 4807,000; 2183,000; 3731,000;169,50904
1807,12; 4751,000; 2061,000; 3579,000;177,20685
1810,68; 5456,000; 2694,000; 4197,000;183,76580
1814,24; 4628,000; 1955,000; 3431,000;181,09756
1817,79; 5077,000; 2464,000; 3918,000;179,71114
1821,34; 5209,000; 2605,000; 4045,000;180,83333
1824,88; 4635,000; 2018,000; 3427,000;185,73456
1828,41; 4880,000; 2289,000; 3672,000;187,34635
1831,94; 4684,000; 2125,000; 3487,000;187,88546
1835,47; 4440,000; 1906,000; 3243,000;189,52880
1838,99; 4730,000; 2296,000; 3612,000;184,95441
1842,50; 4587,000; 2133,000; 3433,000;188,76923
1846,01; 4390,000; 2020,000; 3270,000;189,60000
1849,51; 4182,000; 1814,000; 3091,000;185,43461
1853,01; 4206,000; 1929,000; 3201,000;179,00943
1856,50; 5041,000; 2700,000; 3984,000;182,32087
1859,99; 4151,000; 1862,000; 3058,000;191,38796
1863,47; 4435,000; 2216,000; 3413,000;185,38012
1866,94; 4163,000; 2005,000; 3183,000;183,19185
1870,41; 4599,000; 2432,000; 3602,000;185,21368
1873,88; 4372,000; 2210,000; 3354,000;188,98601
1877,34; 4555,000; 2493,000; 3625,000;182,15548
1880,79; 4409,000; 2396,000; 3490,000;184,00366
1884,24; 4317,000; 2396,000; 3479,000;177,37765
1887,68; 3853,000; 2020,000; 3039,000;179,88224
1891,12; 3648,000; 1891,000; 2931,000;168,94231
1894,55; 3697,000; 2022,000; 3034,000;165,51383
1897,98; 3938,000; 2272,000; 3275,000;166,10169
1901,40; 3624,000; 2030,000; 3031,000;159,24076

