D_PLA_FCR_1
Integration time [ms]: 100,000
Averaging Nr. [scans]: 1
Smoothing Nr. [pixels]: 0
Data measured with spectrometer [name]: 1204091U1
Wave   ;Sample   ;Dark     ;Reference;Reflectance
[nm]   ;[counts] ;[counts] ;[counts] ;[%]

1014,48; 5067,000; 2159,000; 6686,000;64,23680
1019,01; 5354,000; 2263,000; 7134,000;63,45720
1023,54; 5712,000; 2460,000; 7582,000;63,49082
1028,07; 5752,000; 2357,000; 7740,000;63,06892
1032,59; 5808,000; 2222,000; 7947,000;62,63755
1037,10; 6067,000; 2251,000; 8409,000;61,96817
1041,62; 6305,000; 2335,000; 8775,000;61,64596
1046,12; 6944,000; 2824,000; 9555,000;61,20933
1050,62; 6542,000; 2300,000; 9240,000;61,12392
1055,12; 6542,000; 2181,000; 9387,000;60,51901
1059,62; 6443,000; 2009,000; 9358,000;60,33474
1064,10; 7006,000; 2401,000;10031,000;60,35387
1068,59; 7286,000; 2570,000;10411,000;60,14539
1073,07; 7221,000; 2356,000;10516,000;59,62010
1077,54; 7259,000; 2278,000;10631,000;59,63127
1082,01; 7575,000; 2486,000;11025,000;59,59714
1086,48; 7735,000; 2488,000;11325,000;59,37535
1090,94; 7359,000; 2081,000;10975,000;59,34338
1095,39; 8514,000; 3026,000;12290,000;59,24007
1099,85; 7969,000; 2345,000;11921,000;58,73016
1104,29; 8169,000; 2403,000;12226,000;58,69897
1108,73; 7903,000; 2060,000;12064,000;58,40664
1113,17; 8685,000; 2768,000;12897,000;58,41643
1117,61; 8369,000; 2351,000;12709,000;58,10002
1122,03; 8762,000; 2714,000;13178,000;57,79817
1126,46; 8316,000; 2237,000;12873,000;57,15495
1130,88; 8285,000; 2154,000;12946,000;56,81060
1135,29; 8908,000; 2780,000;13624,000;56,51051
1139,70; 8330,000; 2109,000;13204,000;56,07030
1144,11; 8431,000; 2181,000;13375,000;55,83348
1148,51; 8466,000; 2244,000;13522,000;55,16936
1152,90; 8484,000; 2301,000;13707,000;54,20831
1157,29; 8116,000; 2006,000;13470,000;53,29728
1161,68; 8343,000; 2262,000;13824,000;52,59471
1166,06; 8287,000; 2248,000;13803,000;52,26309
1170,44; 8441,000; 2494,000;13961,000;51,86186
1174,81; 8022,000; 2196,000;13387,000;52,05969
1179,18; 8274,000; 2339,000;13505,000;53,15243
1183,54; 8517,000; 2531,000;13570,000;54,22593
1187,90; 8659,000; 2580,000;13523,000;55,55149
1192,25; 8458,000; 2379,000;13172,000;56,32354
1196,60; 8281,000; 2222,000;12903,000;56,72690
1200,94; 8501,000; 2485,000;12994,000;57,24617
1205,28; 8206,000; 2285,000;12529,000;57,79969
1209,62; 8331,000; 2418,000;12639,000;57,85148
1213,95; 8435,000; 2543,000;12596,000;58,60937
1218,27; 7974,000; 2113,000;12057,000;58,94006
1222,59; 8426,000; 2762,000;12319,000;59,26546
1226,91; 8135,000; 2482,000;12036,000;59,16893
1231,22; 7825,000; 2269,000;11621,000;59,40975
1235,52; 7421,000; 1935,000;11126,000;59,68883
1239,82; 7757,000; 2360,000;11354,000;60,00667
1244,12; 7473,000; 2191,000;10953,000;60,28304
1248,41; 7737,000; 2519,000;11152,000;60,44249
1252,70; 6896,000; 1808,000;10246,000;60,29865
1256,98; 7146,000; 2069,000;10481,000;60,35426
1261,26; 7592,000; 2578,000;10887,000;60,34421
1265,53; 6814,000; 1911,000;10040,000;60,31492
1269,80; 6990,000; 2085,000;10196,000;60,47343
1274,06; 7282,000; 2472,000;10429,000;60,44992
1278,32; 7003,000; 2246,000;10116,000;60,44473
1282,57; 7022,000; 2315,000;10115,000;60,34615
1286,82; 6839,000; 2159,000; 9878,000;60,62962
1291,06; 7027,000; 2434,000; 9974,000;60,91512
1295,30; 6933,000; 2354,000; 9886,000;60,79395
1299,53; 7091,000; 2461,000;10030,000;61,17056
1303,76; 6905,000; 2315,000; 9771,000;61,56116
1307,99; 7201,000; 2633,000;10041,000;61,66307
1312,20; 7079,000; 2539,000; 9875,000;61,88659
1316,42; 6610,000; 2175,000; 9339,000;61,90676
1320,63; 6631,000; 2246,000; 9303,000;62,13689
1324,83; 6192,000; 1875,000; 8811,000;62,24048
1329,03; 6536,000; 2294,000; 9122,000;62,12654
1333,23; 6241,000; 2137,000; 8853,000;61,10780
1337,42; 6475,000; 2453,000; 9095,000;60,55405
1341,60; 5947,000; 2063,000; 8573,000;59,66206
1345,78; 6138,000; 2407,000; 8779,000;58,55304
1349,96; 5660,000; 1977,000; 8295,000;58,29376
1354,13; 5826,000; 2218,000; 8428,000;58,09984
1358,29; 5593,000; 2040,000; 8181,000;57,85703
1362,46; 5863,000; 2455,000; 8370,000;57,61623
1366,61; 5725,000; 2409,000; 8197,000;57,29095
1370,76; 5338,000; 2106,000; 7751,000;57,25421
1374,91; 5827,000; 2653,000; 8072,000;58,57169
1379,05; 5090,000; 2056,000; 7236,000;58,57143
1383,18; 5971,000; 2983,000; 8057,000;58,88845
1387,32; 5040,000; 2042,000; 7174,000;58,41777
1391,44; 5055,000; 2029,000; 7155,000;59,03238
1395,56; 5909,000; 2838,000; 7994,000;59,56168
1399,68; 4967,000; 1864,000; 7116,000;59,08225
1403,79; 5199,000; 2045,000; 7382,000;59,09687
1407,90; 5120,000; 1975,000; 7279,000;59,29487
1412,00; 5289,000; 2064,000; 7433,000;60,06705
1416,10; 5692,000; 2407,000; 7775,000;61,19598
1420,19; 5349,000; 2106,000; 7422,000;61,00451
1424,27; 5557,000; 2292,000; 7597,000;61,54571
1428,36; 5612,000; 2373,000; 7627,000;61,64827
1432,43; 5760,000; 2538,000; 7760,000;61,70050
1436,50; 5404,000; 2221,000; 7397,000;61,49536
1440,57; 5568,000; 2379,000; 7559,000;61,56371
1444,63; 5174,000; 2054,000; 7190,000;60,74766
1448,69; 4948,000; 1832,000; 6909,000;61,37483
1452,74; 5240,000; 2149,000; 7178,000;61,46351
1456,79; 5004,000; 1924,000; 6934,000;61,47705
1460,83; 5156,000; 2085,000; 7017,000;62,26683
1464,87; 5443,000; 2389,000; 7273,000;62,53071
1468,90; 5432,000; 2366,000; 7250,000;62,77641
1472,93; 5302,000; 2274,000; 7073,000;63,09648
1476,95; 5368,000; 2304,000; 7073,000;64,24827
1480,96; 5074,000; 2026,000; 6740,000;64,65846
1484,98; 5261,000; 2214,000; 6916,000;64,80221
1488,98; 5344,000; 2321,000; 6981,000;64,87124
1492,98; 5411,000; 2415,000; 6974,000;65,71617
1496,98; 5046,000; 2066,000; 6594,000;65,81272
1500,97; 5441,000; 2503,000; 6934,000;66,30557
1504,96; 4808,000; 1869,000; 6310,000;66,17879
1508,94; 5398,000; 2442,000; 6874,000;66,69675
1512,92; 4979,000; 2047,000; 6459,000;66,45512
1516,89; 5083,000; 2181,000; 6559,000;66,28598
1520,85; 4946,000; 2039,000; 6397,000;66,70491
1524,81; 5478,000; 2622,000; 6923,000;66,40316
1528,77; 4855,000; 1993,000; 6335,000;65,91433
1532,72; 4933,000; 2083,000; 6385,000;66,24826
1536,67; 5363,000; 2574,000; 6827,000;65,57724
1540,61; 4787,000; 2053,000; 6158,000;66,60171
1544,54; 5149,000; 2397,000; 6559,000;66,12206
1548,47; 4571,000; 1870,000; 5963,000;65,99072
1552,40; 4996,000; 2311,000; 6340,000;66,64185
1556,32; 4967,000; 2289,000; 6299,000;66,78304
1560,23; 4809,000; 2216,000; 6063,000;67,40317
1564,15; 4856,000; 2266,000; 6123,000;67,15064
1568,05; 4705,000; 2111,000; 5937,000;67,79927
1571,95; 4964,000; 2431,000; 6174,000;67,67299
1575,84; 4659,000; 2066,000; 5767,000;70,06215
1579,73; 4854,000; 2334,000; 5973,000;69,24979
1583,62; 4756,000; 2251,000; 5853,000;69,54470
1587,50; 4442,000; 1973,000; 5552,000;68,98575
1591,37; 4964,000; 2501,000; 6051,000;69,38028
1595,24; 4611,000; 2195,000; 5695,000;69,02857
1599,11; 4337,000; 1935,000; 5426,000;68,80550
1602,96; 4356,000; 2027,000; 5422,000;68,60088
1606,82; 4207,000; 1926,000; 5276,000;68,08955
1610,67; 4430,000; 2202,000; 5507,000;67,41301
1614,51; 4595,000; 2375,000; 5635,000;68,09816
1618,35; 4144,000; 1955,000; 5143,000;68,66374
1622,18; 4330,000; 2163,000; 5307,000;68,92494
1626,01; 4331,000; 2191,000; 5286,000;69,14378
1629,83; 4355,000; 2237,000; 5309,000;68,94531
1633,65; 4447,000; 2363,000; 5411,000;68,37270
1637,46; 4124,000; 2065,000; 5041,000;69,18683
1641,27; 4045,000; 2043,000; 4995,000;67,81843
1645,07; 3993,000; 2025,000; 4923,000;67,90890
1648,86; 3967,000; 2022,000; 4872,000;68,24561
1652,66; 3877,000; 2009,000; 4849,000;65,77465
1656,44; 3914,000; 2080,000; 4866,000;65,82915
1660,22; 4044,000; 2279,000; 5011,000;64,60469
1664,00; 4112,000; 2386,000; 5119,000;63,15404
1667,77; 3787,000; 2147,000; 4820,000;61,35428
1671,53; 3654,000; 2096,000; 4676,000;60,38760
1675,29; 3581,000; 1956,000; 4597,000;61,52972
1679,05; 3828,000; 2235,000; 4841,000;61,12817
1682,80; 3688,000; 2121,000; 4673,000;61,40282
1686,54; 3919,000; 2345,000; 4882,000;62,04178
1690,28; 3919,000; 2330,000; 4848,000;63,10564
1694,01; 3488,000; 1942,000; 4390,000;63,15359
1697,74; 3592,000; 2079,000; 4510,000;62,23776
1701,46; 3764,000; 2282,000; 4676,000;61,90476
1705,18; 3435,000; 2006,000; 4351,000;60,93817
1708,89; 3319,000; 1911,000; 4242,000;60,40326
1712,60; 3660,000; 2253,000; 4569,000;60,75130
1716,30; 3682,000; 2295,000; 4547,000;61,58970
1720,00; 3720,000; 2337,000; 4572,000;61,87919
1723,69; 3669,000; 2261,000; 4469,000;63,76812
1727,38; 3289,000; 1905,000; 4079,000;63,66145
1731,06; 3608,000; 2204,000; 4366,000;64,93987
1734,73; 3571,000; 2153,000; 4269,000;67,01323
1738,40; 3428,000; 1998,000; 4086,000;68,48659
1742,07; 3832,000; 2398,000; 4492,000;68,48138
1745,73; 3470,000; 2036,000; 4113,000;69,04189
1749,38; 3722,000; 2316,000; 4333,000;69,70749
1753,03; 3773,000; 2360,000; 4336,000;71,50810
1756,67; 3554,000; 2169,000; 4109,000;71,39175
1760,31; 3680,000; 2287,000; 4202,000;72,74151
1763,94; 3613,000; 2226,000; 4114,000;73,46398
1767,57; 3593,000; 2202,000; 4056,000;75,02697
1771,19; 3448,000; 2090,000; 3874,000;76,12108
1774,81; 3591,000; 2248,000; 4032,000;75,28027
1778,42; 3580,000; 2269,000; 4027,000;74,57338
1782,03; 3388,000; 2095,000; 3823,000;74,82639
1785,63; 3292,000; 2035,000; 3722,000;74,51097
1789,22; 3384,000; 2111,000; 3791,000;75,77381
1792,81; 3211,000; 1992,000; 3582,000;76,66667
1796,40; 3114,000; 1886,000; 3487,000;76,70206
1799,98; 3672,000; 2449,000; 4025,000;77,60152
1803,55; 3406,000; 2183,000; 3731,000;79,00517
1807,12; 3260,000; 2061,000; 3579,000;78,98551
1810,68; 3891,000; 2694,000; 4197,000;79,64072
1814,24; 3145,000; 1955,000; 3431,000;80,62331
1817,79; 3686,000; 2464,000; 3918,000;84,04402
1821,34; 3807,000; 2605,000; 4045,000;83,47222
1824,88; 3194,000; 2018,000; 3427,000;83,46345
1828,41; 3473,000; 2289,000; 3672,000;85,61099
1831,94; 3310,000; 2125,000; 3487,000;87,00441
1835,47; 3083,000; 1906,000; 3243,000;88,03291
1838,99; 3465,000; 2296,000; 3612,000;88,82979
1842,50; 3279,000; 2133,000; 3433,000;88,15385
1846,01; 3148,000; 2020,000; 3270,000;90,24000
1849,51; 2959,000; 1814,000; 3091,000;89,66327
1853,01; 3037,000; 1929,000; 3201,000;87,10692
1856,50; 3838,000; 2700,000; 3984,000;88,62928
1859,99; 2939,000; 1862,000; 3058,000;90,05017
1863,47; 3284,000; 2216,000; 3413,000;89,22306
1866,94; 3055,000; 2005,000; 3183,000;89,13413
1870,41; 3472,000; 2432,000; 3602,000;88,88889
1873,88; 3241,000; 2210,000; 3354,000;90,12238
1877,34; 3527,000; 2493,000; 3625,000;91,34276
1880,79; 3418,000; 2396,000; 3490,000;93,41865
1884,24; 3381,000; 2396,000; 3479,000;90,95106
1887,68; 2984,000; 2020,000; 3039,000;94,60255
1891,12; 2848,000; 1891,000; 2931,000;92,01923
1894,55; 2973,000; 2022,000; 3034,000;93,97233
1897,98; 3231,000; 2272,000; 3275,000;95,61316
1901,40; 2984,000; 2030,000; 3031,000;95,30470

