DW905_PLA_FCR_3
Integration time [ms]: 100,000
Averaging Nr. [scans]: 1
Smoothing Nr. [pixels]: 0
Data measured with spectrometer [name]: 1204091U1
Wave   ;Sample   ;Dark     ;Reference;Reflectance
[nm]   ;[counts] ;[counts] ;[counts] ;[%]

1014,48; 5712,000; 2159,000; 6686,000;78,48465
1019,01; 6077,000; 2263,000; 7134,000;78,30014
1023,54; 6500,000; 2460,000; 7582,000;78,87544
1028,07; 6576,000; 2357,000; 7740,000;78,37637
1032,59; 6702,000; 2222,000; 7947,000;78,25328
1037,10; 7060,000; 2251,000; 8409,000;78,09354
1041,62; 7332,000; 2335,000; 8775,000;77,59317
1046,12; 8044,000; 2824,000; 9555,000;77,55163
1050,62; 7688,000; 2300,000; 9240,000;77,63689
1055,12; 7759,000; 2181,000; 9387,000;77,40772
1059,62; 7710,000; 2009,000; 9358,000;77,57518
1064,10; 8300,000; 2401,000;10031,000;77,31324
1068,59; 8650,000; 2570,000;10411,000;77,54113
1073,07; 8698,000; 2356,000;10516,000;77,72059
1077,54; 8769,000; 2278,000;10631,000;77,70861
1082,01; 9137,000; 2486,000;11025,000;77,88968
1086,48; 9362,000; 2488,000;11325,000;77,78658
1090,94; 9009,000; 2081,000;10975,000;77,89521
1095,39;10249,000; 3026,000;12290,000;77,96848
1099,85; 9782,000; 2345,000;11921,000;77,66291
1104,29;10058,000; 2403,000;12226,000;77,92935
1108,73; 9833,000; 2060,000;12064,000;77,69892
1113,17;10654,000; 2768,000;12897,000;77,85566
1117,61;10398,000; 2351,000;12709,000;77,68874
1122,03;10815,000; 2714,000;13178,000;77,41781
1126,46;10451,000; 2237,000;12873,000;77,22828
1130,88;10432,000; 2154,000;12946,000;76,70497
1135,29;11071,000; 2780,000;13624,000;76,45703
1139,70;10531,000; 2109,000;13204,000;75,90807
1144,11;10657,000; 2181,000;13375,000;75,71914
1148,51;10735,000; 2244,000;13522,000;75,28817
1152,90;10784,000; 2301,000;13707,000;74,37314
1157,29;10437,000; 2006,000;13470,000;73,54327
1161,68;10675,000; 2262,000;13824,000;72,76423
1166,06;10630,000; 2248,000;13803,000;72,54003
1170,44;10731,000; 2494,000;13961,000;71,83221
1174,81;10282,000; 2196,000;13387,000;72,25449
1179,18;10524,000; 2339,000;13505,000;73,30288
1183,54;10755,000; 2531,000;13570,000;74,49950
1187,90;10863,000; 2580,000;13523,000;75,69222
1192,25;10635,000; 2379,000;13172,000;76,49402
1196,60;10403,000; 2222,000;12903,000;76,59395
1200,94;10580,000; 2485,000;12994,000;77,02921
1205,28;10267,000; 2285,000;12529,000;77,91878
1209,62;10371,000; 2418,000;12639,000;77,81039
1213,95;10431,000; 2543,000;12596,000;78,46414
1218,27; 9929,000; 2113,000;12057,000;78,60016
1222,59;10286,000; 2762,000;12319,000;78,72763
1226,91;10005,000; 2482,000;12036,000;78,74189
1231,22; 9647,000; 2269,000;11621,000;78,89222
1235,52; 9179,000; 1935,000;11126,000;78,81623
1239,82; 9470,000; 2360,000;11354,000;79,05270
1244,12; 9107,000; 2191,000;10953,000;78,93175
1248,41; 9320,000; 2519,000;11152,000;78,77910
1252,70; 8447,000; 1808,000;10246,000;78,67978
1256,98; 8663,000; 2069,000;10481,000;78,38802
1261,26; 9085,000; 2578,000;10887,000;78,31267
1265,53; 8297,000; 1911,000;10040,000;78,55825
1269,80; 8454,000; 2085,000;10196,000;78,52299
1274,06; 8717,000; 2472,000;10429,000;78,48435
1278,32; 8451,000; 2246,000;10116,000;78,84371
1282,57; 8446,000; 2315,000;10115,000;78,60256
1286,82; 8232,000; 2159,000; 9878,000;78,67599
1291,06; 8359,000; 2434,000; 9974,000;78,58090
1295,30; 8280,000; 2354,000; 9886,000;78,67764
1299,53; 8415,000; 2461,000;10030,000;78,66297
1303,76; 8207,000; 2315,000; 9771,000;79,02361
1307,99; 8464,000; 2633,000;10041,000;78,71220
1312,20; 8325,000; 2539,000; 9875,000;78,87132
1316,42; 7810,000; 2175,000; 9339,000;78,65717
1320,63; 7789,000; 2246,000; 9303,000;78,54612
1324,83; 7313,000; 1875,000; 8811,000;78,40254
1329,03; 7634,000; 2294,000; 9122,000;78,20738
1333,23; 7356,000; 2137,000; 8853,000;77,70995
1337,42; 7583,000; 2453,000; 9095,000;77,23577
1341,60; 7020,000; 2063,000; 8573,000;76,14439
1345,78; 7210,000; 2407,000; 8779,000;75,37665
1349,96; 6711,000; 1977,000; 8295,000;74,92877
1354,13; 6834,000; 2218,000; 8428,000;74,33172
1358,29; 6601,000; 2040,000; 8181,000;74,27129
1362,46; 6790,000; 2455,000; 8370,000;73,28825
1366,61; 6623,000; 2409,000; 8197,000;72,80581
1370,76; 6205,000; 2106,000; 7751,000;72,61293
1374,91; 6611,000; 2653,000; 8072,000;73,03931
1379,05; 5838,000; 2056,000; 7236,000;73,01158
1383,18; 6771,000; 2983,000; 8057,000;74,65510
1387,32; 5829,000; 2042,000; 7174,000;73,79189
1391,44; 5808,000; 2029,000; 7155,000;73,72220
1395,56; 6643,000; 2838,000; 7994,000;73,79752
1399,68; 5747,000; 1864,000; 7116,000;73,93374
1403,79; 5989,000; 2045,000; 7382,000;73,89919
1407,90; 5914,000; 1975,000; 7279,000;74,26471
1412,00; 6054,000; 2064,000; 7433,000;74,31551
1416,10; 6451,000; 2407,000; 7775,000;75,33532
1420,19; 6143,000; 2106,000; 7422,000;75,94056
1424,27; 6334,000; 2292,000; 7597,000;76,19227
1428,36; 6369,000; 2373,000; 7627,000;76,05634
1432,43; 6541,000; 2538,000; 7760,000;76,65645
1436,50; 6181,000; 2221,000; 7397,000;76,50696
1440,57; 6339,000; 2379,000; 7559,000;76,44788
1444,63; 5993,000; 2054,000; 7190,000;76,69393
1448,69; 5764,000; 1832,000; 6909,000;77,44731
1452,74; 6082,000; 2149,000; 7178,000;78,20640
1456,79; 5838,000; 1924,000; 6934,000;78,12375
1460,83; 5959,000; 2085,000; 7017,000;78,54826
1464,87; 6234,000; 2389,000; 7273,000;78,72645
1468,90; 6218,000; 2366,000; 7250,000;78,86978
1472,93; 6121,000; 2274,000; 7073,000;80,16253
1476,95; 6129,000; 2304,000; 7073,000;80,20549
1480,96; 5793,000; 2026,000; 6740,000;79,91090
1484,98; 6007,000; 2214,000; 6916,000;80,66780
1488,98; 6053,000; 2321,000; 6981,000;80,08584
1492,98; 6090,000; 2415,000; 6974,000;80,60978
1496,98; 5714,000; 2066,000; 6594,000;80,56537
1500,97; 6078,000; 2503,000; 6934,000;80,68156
1504,96; 5461,000; 1869,000; 6310,000;80,88268
1508,94; 6018,000; 2442,000; 6874,000;80,68592
1512,92; 5611,000; 2047,000; 6459,000;80,77969
1516,89; 5745,000; 2181,000; 6559,000;81,40704
1520,85; 5577,000; 2039,000; 6397,000;81,18403
1524,81; 6100,000; 2622,000; 6923,000;80,86492
1528,77; 5505,000; 1993,000; 6335,000;80,88439
1532,72; 5579,000; 2083,000; 6385,000;81,26453
1536,67; 6006,000; 2574,000; 6827,000;80,69598
1540,61; 5386,000; 2053,000; 6158,000;81,19367
1544,54; 5768,000; 2397,000; 6559,000;80,99471
1548,47; 5172,000; 1870,000; 5963,000;80,67432
1552,40; 5603,000; 2311,000; 6340,000;81,70762
1556,32; 5567,000; 2289,000; 6299,000;81,74564
1560,23; 5381,000; 2216,000; 6063,000;82,27190
1564,15; 5448,000; 2266,000; 6123,000;82,49935
1568,05; 5252,000; 2111,000; 5937,000;82,09618
1571,95; 5521,000; 2431,000; 6174,000;82,55410
1575,84; 5127,000; 2066,000; 5767,000;82,70738
1579,73; 5360,000; 2334,000; 5973,000;83,15471
1583,62; 5226,000; 2251,000; 5853,000;82,59300
1587,50; 4912,000; 1973,000; 5552,000;82,11791
1591,37; 5420,000; 2501,000; 6051,000;82,22535
1595,24; 5055,000; 2195,000; 5695,000;81,71429
1599,11; 4778,000; 1935,000; 5426,000;81,43798
1602,96; 4815,000; 2027,000; 5422,000;82,12077
1606,82; 4660,000; 1926,000; 5276,000;81,61194
1610,67; 4888,000; 2202,000; 5507,000;81,27080
1614,51; 5027,000; 2375,000; 5635,000;81,34969
1618,35; 4557,000; 1955,000; 5143,000;81,61857
1622,18; 4749,000; 2163,000; 5307,000;82,25191
1626,01; 4736,000; 2191,000; 5286,000;82,22940
1629,83; 4744,000; 2237,000; 5309,000;81,60807
1633,65; 4837,000; 2363,000; 5411,000;81,16798
1637,46; 4518,000; 2065,000; 5041,000;82,42608
1641,27; 4412,000; 2043,000; 4995,000;80,25068
1645,07; 4334,000; 2025,000; 4923,000;79,67564
1648,86; 4272,000; 2022,000; 4872,000;78,94737
1652,66; 4176,000; 2009,000; 4849,000;76,30282
1656,44; 4191,000; 2080,000; 4866,000;75,77172
1660,22; 4260,000; 2279,000; 5011,000;72,51098
1664,00; 4275,000; 2386,000; 5119,000;69,11819
1667,77; 3908,000; 2147,000; 4820,000;65,88103
1671,53; 3788,000; 2096,000; 4676,000;65,58140
1675,29; 3627,000; 1956,000; 4597,000;63,27149
1679,05; 3866,000; 2235,000; 4841,000;62,58634
1682,80; 3705,000; 2121,000; 4673,000;62,06897
1686,54; 3992,000; 2345,000; 4882,000;64,91920
1690,28; 4016,000; 2330,000; 4848,000;66,95790
1694,01; 3593,000; 1942,000; 4390,000;67,44281
1697,74; 3699,000; 2079,000; 4510,000;66,63924
1701,46; 3818,000; 2282,000; 4676,000;64,16040
1705,18; 3478,000; 2006,000; 4351,000;62,77186
1708,89; 3296,000; 1911,000; 4242,000;59,41656
1712,60; 3626,000; 2253,000; 4569,000;59,28325
1716,30; 3619,000; 2295,000; 4547,000;58,79218
1720,00; 3657,000; 2337,000; 4572,000;59,06040
1723,69; 3623,000; 2261,000; 4469,000;61,68478
1727,38; 3228,000; 1905,000; 4079,000;60,85557
1731,06; 3613,000; 2204,000; 4366,000;65,17114
1734,73; 3603,000; 2153,000; 4269,000;68,52552
1738,40; 3470,000; 1998,000; 4086,000;70,49808
1742,07; 3867,000; 2398,000; 4492,000;70,15282
1745,73; 3500,000; 2036,000; 4113,000;70,48628
1749,38; 3752,000; 2316,000; 4333,000;71,19484
1753,03; 3779,000; 2360,000; 4336,000;71,81174
1756,67; 3591,000; 2169,000; 4109,000;73,29897
1760,31; 3733,000; 2287,000; 4202,000;75,50914
1763,94; 3646,000; 2226,000; 4114,000;75,21186
1767,57; 3640,000; 2202,000; 4056,000;77,56203
1771,19; 3501,000; 2090,000; 3874,000;79,09193
1774,81; 3639,000; 2248,000; 4032,000;77,97085
1778,42; 3652,000; 2269,000; 4027,000;78,66894
1782,03; 3453,000; 2095,000; 3823,000;78,58796
1785,63; 3380,000; 2035,000; 3722,000;79,72733
1789,22; 3428,000; 2111,000; 3791,000;78,39286
1792,81; 3259,000; 1992,000; 3582,000;79,68553
1796,40; 3146,000; 1886,000; 3487,000;78,70081
1799,98; 3702,000; 2449,000; 4025,000;79,50508
1803,55; 3414,000; 2183,000; 3731,000;79,52196
1807,12; 3260,000; 2061,000; 3579,000;78,98551
1810,68; 3891,000; 2694,000; 4197,000;79,64072
1814,24; 3127,000; 1955,000; 3431,000;79,40379
1817,79; 3633,000; 2464,000; 3918,000;80,39890
1821,34; 3761,000; 2605,000; 4045,000;80,27778
1824,88; 3148,000; 2018,000; 3427,000;80,19872
1828,41; 3405,000; 2289,000; 3672,000;80,69414
1831,94; 3243,000; 2125,000; 3487,000;82,08517
1835,47; 3024,000; 1906,000; 3243,000;83,62004
1838,99; 3406,000; 2296,000; 3612,000;84,34650
1842,50; 3218,000; 2133,000; 3433,000;83,46154
1846,01; 3092,000; 2020,000; 3270,000;85,76000
1849,51; 2903,000; 1814,000; 3091,000;85,27800
1853,01; 2994,000; 1929,000; 3201,000;83,72642
1856,50; 3795,000; 2700,000; 3984,000;85,28037
1859,99; 2919,000; 1862,000; 3058,000;88,37793
1863,47; 3264,000; 2216,000; 3413,000;87,55221
1866,94; 3007,000; 2005,000; 3183,000;85,05942
1870,41; 3437,000; 2432,000; 3602,000;85,89744
1873,88; 3201,000; 2210,000; 3354,000;86,62587
1877,34; 3481,000; 2493,000; 3625,000;87,27915
1880,79; 3350,000; 2396,000; 3490,000;87,20293
1884,24; 3305,000; 2396,000; 3479,000;83,93352
1887,68; 2910,000; 2020,000; 3039,000;87,34053
1891,12; 2742,000; 1891,000; 2931,000;81,82692
1894,55; 2858,000; 2022,000; 3034,000;82,60870
1897,98; 3089,000; 2272,000; 3275,000;81,45563
1901,40; 2844,000; 2030,000; 3031,000;81,31868

