KL603_PS_FCR_3
Integration time [ms]: 100,000
Averaging Nr. [scans]: 1
Smoothing Nr. [pixels]: 0
Data measured with spectrometer [name]: 1204091U1
Wave   ;Sample   ;Dark     ;Reference;Reflectance
[nm]   ;[counts] ;[counts] ;[counts] ;[%]

1014,48; 7161,000; 2453,000; 7571,000;91,98906
1019,01; 7570,000; 2571,000; 8072,000;90,87439
1023,54; 8012,000; 2760,000; 8557,000;90,59859
1028,07; 8148,000; 2645,000; 8728,000;90,46523
1032,59; 8278,000; 2542,000; 8976,000;89,15138
1037,10; 8658,000; 2552,000; 9493,000;87,97003
1041,62; 8981,000; 2645,000; 9874,000;87,64698
1046,12; 9722,000; 3172,000;10692,000;87,10106
1050,62; 9422,000; 2658,000;10426,000;87,07518
1055,12; 9453,000; 2509,000;10544,000;86,42190
1059,62; 9393,000; 2352,000;10536,000;86,03372
1064,10;10024,000; 2726,000;11217,000;85,94983
1068,59;10393,000; 2932,000;11644,000;85,64050
1073,07;10449,000; 2693,000;11791,000;85,24951
1077,54;10522,000; 2612,000;11902,000;85,14532
1082,01;10890,000; 2824,000;12356,000;84,62023
1086,48;11046,000; 2801,000;12632,000;83,86736
1090,94;10714,000; 2380,000;12314,000;83,89370
1095,39;11930,000; 3344,000;13669,000;83,15738
1099,85;11443,000; 2612,000;13309,000;82,55586
1104,29;11673,000; 2682,000;13632,000;82,10959
1108,73;11427,000; 2312,000;13510,000;81,39846
1113,17;12187,000; 3042,000;14359,000;80,80763
1117,61;11909,000; 2646,000;14198,000;80,18525
1122,03;12391,000; 3046,000;14722,000;80,03597
1126,46;11990,000; 2527,000;14400,000;79,70184
1130,88;12067,000; 2466,000;14495,000;79,81545
1135,29;12749,000; 3111,000;15219,000;79,60026
1139,70;12286,000; 2407,000;14793,000;79,75941
1144,11;12467,000; 2489,000;14967,000;79,96474
1148,51;12643,000; 2565,000;15172,000;79,93972
1152,90;12783,000; 2579,000;15293,000;80,25798
1157,29;12612,000; 2339,000;15111,000;80,43376
1161,68;12965,000; 2547,000;15452,000;80,72840
1166,06;12935,000; 2534,000;15403,000;80,82213
1170,44;13071,000; 2810,000;15520,000;80,73171
1174,81;12557,000; 2521,000;14948,000;80,75964
1179,18;12664,000; 2667,000;15071,000;80,59497
1183,54;12760,000; 2847,000;15116,000;80,79713
1187,90;12711,000; 2891,000;15091,000;80,49180
1192,25;12339,000; 2667,000;14694,000;80,41906
1196,60;12102,000; 2522,000;14434,000;80,42310
1200,94;12188,000; 2733,000;14497,000;80,37232
1205,28;11822,000; 2575,000;14032,000;80,71048
1209,62;11911,000; 2673,000;14073,000;81,03509
1213,95;11919,000; 2827,000;14061,000;80,93288
1218,27;11391,000; 2397,000;13503,000;80,98325
1222,59;11750,000; 3050,000;13756,000;81,26284
1226,91;11473,000; 2791,000;13486,000;81,17812
1231,22;11061,000; 2566,000;13022,000;81,24522
1235,52;10595,000; 2255,000;12518,000;81,26279
1239,82;10887,000; 2660,000;12731,000;81,69000
1244,12;10517,000; 2513,000;12276,000;81,98300
1248,41;10734,000; 2839,000;12479,000;81,89834
1252,70; 9848,000; 2157,000;11531,000;82,04608
1256,98;10073,000; 2405,000;11723,000;82,29234
1261,26;10455,000; 2898,000;12129,000;81,86545
1265,53; 9648,000; 2242,000;11284,000;81,90666
1269,80; 9795,000; 2393,000;11431,000;81,89865
1274,06;10072,000; 2810,000;11639,000;82,25167
1278,32; 9728,000; 2550,000;11295,000;82,08119
1282,57; 9709,000; 2625,000;11256,000;82,07624
1286,82; 9488,000; 2467,000;11002,000;82,26128
1291,06; 9653,000; 2738,000;11125,000;82,44903
1295,30; 9556,000; 2653,000;11013,000;82,57177
1299,53; 9706,000; 2787,000;11181,000;82,42792
1303,76; 9474,000; 2600,000;10932,000;82,50120
1307,99; 9752,000; 2905,000;11203,000;82,51386
1312,20; 9590,000; 2833,000;11044,000;82,29205
1316,42; 9070,000; 2476,000;10478,000;82,40440
1320,63; 9097,000; 2579,000;10484,000;82,45414
1324,83; 8605,000; 2192,000; 9974,000;82,40812
1329,03; 8950,000; 2674,000;10257,000;82,76408
1333,23; 8665,000; 2468,000; 9986,000;82,42884
1337,42; 8899,000; 2764,000;10213,000;82,36005
1341,60; 8398,000; 2379,000; 9662,000;82,64451
1345,78; 8640,000; 2742,000; 9883,000;82,59347
1349,96; 8135,000; 2303,000; 9376,000;82,45440
1354,13; 8250,000; 2510,000; 9449,000;82,72085
1358,29; 8003,000; 2356,000; 9196,000;82,55848
1362,46; 8217,000; 2743,000; 9351,000;82,83898
1366,61; 8072,000; 2731,000; 9181,000;82,80620
1370,76; 7639,000; 2399,000; 8708,000;83,05595
1374,91; 8037,000; 2995,000; 9036,000;83,46300
1379,05; 7251,000; 2366,000; 8178,000;84,05024
1383,18; 8074,000; 3283,000; 9009,000;83,67097
1387,32; 7158,000; 2319,000; 8098,000;83,73421
1391,44; 7157,000; 2327,000; 8096,000;83,72335
1395,56; 7996,000; 3137,000; 8942,000;83,70370
1399,68; 7039,000; 2135,000; 8073,000;82,58673
1403,79; 7311,000; 2329,000; 8366,000;82,52443
1407,90; 7199,000; 2263,000; 8269,000;82,18448
1412,00; 7354,000; 2365,000; 8420,000;82,39472
1416,10; 7676,000; 2718,000; 8761,000;82,04534
1420,19; 7343,000; 2409,000; 8400,000;82,35687
1424,27; 7523,000; 2632,000; 8589,000;82,10509
1428,36; 7513,000; 2719,000; 8620,000;81,24047
1432,43; 7639,000; 2846,000; 8708,000;81,76390
1436,50; 7274,000; 2533,000; 8354,000;81,44649
1440,57; 7443,000; 2732,000; 8530,000;81,25216
1444,63; 7023,000; 2366,000; 8116,000;80,99130
1448,69; 6776,000; 2161,000; 7844,000;81,20711
1452,74; 7081,000; 2447,000; 8116,000;81,74281
1456,79; 6793,000; 2238,000; 7867,000;80,92023
1460,83; 6903,000; 2400,000; 7935,000;81,35501
1464,87; 7159,000; 2691,000; 8180,000;81,39916
1468,90; 7132,000; 2650,000; 8132,000;81,75848
1472,93; 6958,000; 2603,000; 7978,000;81,02326
1476,95; 6980,000; 2611,000; 7981,000;81,35940
1480,96; 6661,000; 2298,000; 7601,000;82,27418
1484,98; 6845,000; 2481,000; 7828,000;81,61586
1488,98; 6890,000; 2611,000; 7844,000;81,76954
1492,98; 6961,000; 2725,000; 7881,000;82,15671
1496,98; 6560,000; 2361,000; 7476,000;82,09189
1500,97; 6922,000; 2789,000; 7826,000;82,05281
1504,96; 6268,000; 2172,000; 7164,000;82,05128
1508,94; 6867,000; 2773,000; 7774,000;81,86363
1512,92; 6450,000; 2382,000; 7342,000;82,01613
1516,89; 6542,000; 2502,000; 7430,000;81,98052
1520,85; 6399,000; 2384,000; 7295,000;81,75524
1524,81; 6934,000; 2962,000; 7824,000;81,69478
1528,77; 6285,000; 2324,000; 7205,000;81,15140
1532,72; 6351,000; 2407,000; 7255,000;81,35314
1536,67; 6777,000; 2883,000; 7677,000;81,22653
1540,61; 6189,000; 2376,000; 7009,000;82,30088
1544,54; 6525,000; 2727,000; 7388,000;81,48466
1548,47; 5928,000; 2158,000; 6748,000;82,13508
1552,40; 6353,000; 2615,000; 7147,000;82,48014
1556,32; 6290,000; 2575,000; 7088,000;82,31775
1560,23; 6078,000; 2484,000; 6850,000;82,31791
1564,15; 6168,000; 2555,000; 6922,000;82,73414
1568,05; 5978,000; 2399,000; 6734,000;82,56055
1571,95; 6248,000; 2725,000; 6961,000;83,16808
1575,84; 5869,000; 2347,000; 6574,000;83,32150
1579,73; 6115,000; 2624,000; 6795,000;83,69696
1583,62; 5998,000; 2543,000; 6679,000;83,53482
1587,50; 5683,000; 2249,000; 6365,000;83,43052
1591,37; 6206,000; 2806,000; 6870,000;83,66142
1595,24; 5868,000; 2531,000; 6521,000;83,63409
1599,11; 5567,000; 2244,000; 6219,000;83,59748
1602,96; 5617,000; 2333,000; 6225,000;84,37821
1606,82; 5459,000; 2230,000; 6074,000;84,00104
1610,67; 5667,000; 2503,000; 6261,000;84,19372
1614,51; 5772,000; 2689,000; 6400,000;83,07734
1618,35; 5307,000; 2276,000; 5907,000;83,47563
1622,18; 5480,000; 2494,000; 6062,000;83,68834
1626,01; 5447,000; 2495,000; 6059,000;82,82828
1629,83; 5457,000; 2571,000; 6064,000;82,62239
1633,65; 5562,000; 2670,000; 6118,000;83,87471
1637,46; 5255,000; 2400,000; 5785,000;84,34269
1641,27; 5172,000; 2327,000; 5711,000;84,07210
1645,07; 5125,000; 2289,000; 5633,000;84,80861
1648,86; 5102,000; 2319,000; 5590,000;85,08101
1652,66; 5055,000; 2259,000; 5557,000;84,77865
1656,44; 5105,000; 2366,000; 5600,000;84,69388
1660,22; 5206,000; 2535,000; 5719,000;83,88819
1664,00; 5350,000; 2684,000; 5850,000;84,20720
1667,77; 5053,000; 2449,000; 5553,000;83,89175
1671,53; 4977,000; 2433,000; 5436,000;84,71528
1675,29; 4814,000; 2285,000; 5318,000;83,38279
1679,05; 5061,000; 2563,000; 5561,000;83,32221
1682,80; 4919,000; 2442,000; 5389,000;84,05158
1686,54; 5160,000; 2708,000; 5604,000;84,66851
1690,28; 5108,000; 2658,000; 5556,000;84,54106
1694,01; 4679,000; 2248,000; 5057,000;86,54325
1697,74; 4786,000; 2391,000; 5182,000;85,81154
1701,46; 4979,000; 2601,000; 5350,000;86,50418
1705,18; 4648,000; 2310,000; 4996,000;87,04393
1708,89; 4548,000; 2233,000; 4884,000;87,32554
1712,60; 4885,000; 2612,000; 5224,000;87,02144
1716,30; 4877,000; 2623,000; 5179,000;88,18466
1720,00; 4903,000; 2660,000; 5201,000;88,27233
1723,69; 4774,000; 2563,000; 5072,000;88,12276
1727,38; 4424,000; 2204,000; 4712,000;88,51675
1731,06; 4710,000; 2496,000; 4968,000;89,56311
1734,73; 4652,000; 2459,000; 4917,000;89,21888
1738,40; 4495,000; 2292,000; 4734,000;90,21294
1742,07; 4863,000; 2663,000; 5138,000;88,88889
1745,73; 4510,000; 2312,000; 4760,000;89,78758
1749,38; 4763,000; 2592,000; 5014,000;89,63666
1753,03; 4832,000; 2685,000; 5008,000;92,42359
1756,67; 4579,000; 2466,000; 4783,000;91,19551
1760,31; 4675,000; 2637,000; 4863,000;91,55436
1763,94; 4601,000; 2564,000; 4778,000;92,00542
1767,57; 4553,000; 2562,000; 4713,000;92,56160
1771,19; 4414,000; 2442,000; 4522,000;94,80769
1774,81; 4519,000; 2565,000; 4651,000;93,67210
1778,42; 4497,000; 2584,000; 4617,000;94,09739
1782,03; 4292,000; 2412,000; 4445,000;92,47418
1785,63; 4208,000; 2341,000; 4330,000;93,86626
1789,22; 4285,000; 2405,000; 4385,000;94,94949
1792,81; 4125,000; 2278,000; 4185,000;96,85370
1796,40; 4034,000; 2182,000; 4076,000;97,78247
1799,98; 4524,000; 2714,000; 4598,000;96,07219
1803,55; 4292,000; 2460,000; 4327,000;98,12533
1807,12; 4150,000; 2348,000; 4172,000;98,79386
1810,68; 4774,000; 2987,000; 4794,000;98,89319
1814,24; 4021,000; 2255,000; 4030,000;99,49296
1817,79; 4524,000; 2759,000; 4513,000;100,62714
1821,34; 4670,000; 2932,000; 4641,000;101,69690
1824,88; 4049,000; 2324,000; 4030,000;101,11372
1828,41; 4303,000; 2587,000; 4283,000;101,17925
1831,94; 4124,000; 2421,000; 4081,000;102,59036
1835,47; 3922,000; 2217,000; 3864,000;103,52155
1838,99; 4287,000; 2598,000; 4226,000;103,74693
1842,50; 4074,000; 2418,000; 4025,000;103,04916
1846,01; 3957,000; 2307,000; 3885,000;104,56274
1849,51; 3766,000; 2156,000; 3694,000;104,68140
1853,01; 3865,000; 2262,000; 3774,000;106,01852
1856,50; 4647,000; 3049,000; 4559,000;105,82781
1859,99; 3737,000; 2201,000; 3668,000;104,70348
1863,47; 4080,000; 2547,000; 3994,000;105,94333
1866,94; 3799,000; 2314,000; 3711,000;106,29921
1870,41; 4214,000; 2737,000; 4119,000;106,87410
1873,88; 4009,000; 2520,000; 3897,000;108,13362
1877,34; 4290,000; 2792,000; 4172,000;108,55072
1880,79; 4198,000; 2713,000; 4037,000;112,16012
1884,24; 4151,000; 2665,000; 3995,000;111,72932
1887,68; 3789,000; 2302,000; 3591,000;115,36074
1891,12; 3658,000; 2172,000; 3462,000;115,19380
1894,55; 3789,000; 2296,000; 3582,000;116,09642
1897,98; 4051,000; 2564,000; 3828,000;117,64241
1901,40; 3823,000; 2344,000; 3603,000;117,47419

