923_ABS_FCR_2
Integration time [ms]: 100,000
Averaging Nr. [scans]: 1
Smoothing Nr. [pixels]: 0
Data measured with spectrometer [name]: 1204091U1
Wave   ;Sample   ;Dark     ;Reference;Reflectance
[nm]   ;[counts] ;[counts] ;[counts] ;[%]

1014,48;11442,000; 2159,000; 6686,000;205,05854
1019,01;12198,000; 2263,000; 7134,000;203,96223
1023,54;12933,000; 2460,000; 7582,000;204,47091
1028,07;13353,000; 2357,000; 7740,000;204,27271
1032,59;13912,000; 2222,000; 7947,000;204,19214
1037,10;14765,000; 2251,000; 8409,000;203,21533
1041,62;15409,000; 2335,000; 8775,000;203,01242
1046,12;16448,000; 2824,000; 9555,000;202,40677
1050,62;16352,000; 2300,000; 9240,000;202,47839
1055,12;16738,000; 2181,000; 9387,000;202,01221
1059,62;16836,000; 2009,000; 9358,000;201,75534
1064,10;17756,000; 2401,000;10031,000;201,24509
1068,59;18332,000; 2570,000;10411,000;201,02028
1073,07;18720,000; 2356,000;10516,000;200,53922
1077,54;19023,000; 2278,000;10631,000;200,46690
1082,01;19616,000; 2486,000;11025,000;200,60897
1086,48;20124,000; 2488,000;11325,000;199,56999
1090,94;19924,000; 2081,000;10975,000;200,61839
1095,39;21520,000; 3026,000;12290,000;199,63299
1099,85;21367,000; 2345,000;11921,000;198,64244
1104,29;21868,000; 2403,000;12226,000;198,15739
1108,73;21886,000; 2060,000;12064,000;198,18073
1113,17;22710,000; 2768,000;12897,000;196,88024
1117,61;22518,000; 2351,000;12709,000;194,69975
1122,03;22911,000; 2714,000;13178,000;193,01414
1126,46;22456,000; 2237,000;12873,000;190,09966
1130,88;22245,000; 2154,000;12946,000;186,16568
1135,29;22571,000; 2780,000;13624,000;182,50646
1139,70;21983,000; 2109,000;13204,000;179,12573
1144,11;22155,000; 2181,000;13375,000;178,43488
1148,51;22530,000; 2244,000;13522,000;179,87232
1152,90;23024,000; 2301,000;13707,000;181,68508
1157,29;23055,000; 2006,000;13470,000;183,60956
1161,68;23479,000; 2262,000;13824,000;183,50631
1166,06;23437,000; 2248,000;13803,000;183,37516
1170,44;23375,000; 2494,000;13961,000;182,09645
1174,81;22584,000; 2196,000;13387,000;182,18211
1179,18;22603,000; 2339,000;13505,000;181,47949
1183,54;22435,000; 2531,000;13570,000;180,30619
1187,90;22148,000; 2580,000;13523,000;178,81751
1192,25;21515,000; 2379,000;13172,000;177,30010
1196,60;21036,000; 2222,000;12903,000;176,14456
1200,94;20923,000; 2485,000;12994,000;175,44961
1205,28;20277,000; 2285,000;12529,000;175,63452
1209,62;20342,000; 2418,000;12639,000;175,36445
1213,95;20301,000; 2543,000;12596,000;176,64379
1218,27;19750,000; 2113,000;12057,000;177,36323
1222,59;19881,000; 2762,000;12319,000;179,12525
1226,91;19684,000; 2482,000;12036,000;180,05024
1231,22;19219,000; 2269,000;11621,000;181,24465
1235,52;18644,000; 1935,000;11126,000;181,79741
1239,82;18725,000; 2360,000;11354,000;181,95464
1244,12;18130,000; 2191,000;10953,000;181,91052
1248,41;18208,000; 2519,000;11152,000;181,73289
1252,70;17091,000; 1808,000;10246,000;181,12112
1256,98;17186,000; 2069,000;10481,000;179,70756
1261,26;17458,000; 2578,000;10887,000;179,08292
1265,53;16451,000; 1911,000;10040,000;178,86579
1269,80;16528,000; 2085,000;10196,000;178,06682
1274,06;16573,000; 2472,000;10429,000;177,21503
1278,32;16159,000; 2246,000;10116,000;176,78526
1282,57;16047,000; 2315,000;10115,000;176,05128
1286,82;15703,000; 2159,000; 9878,000;175,46314
1291,06;15652,000; 2434,000; 9974,000;175,30504
1295,30;15484,000; 2354,000; 9886,000;174,32289
1299,53;15649,000; 2461,000;10030,000;174,23702
1303,76;15317,000; 2315,000; 9771,000;174,38305
1307,99;15497,000; 2633,000;10041,000;173,65011
1312,20;15204,000; 2539,000; 9875,000;172,64177
1316,42;14500,000; 2175,000; 9339,000;172,04076
1320,63;14326,000; 2246,000; 9303,000;171,17755
1324,83;13746,000; 1875,000; 8811,000;171,15052
1329,03;13906,000; 2294,000; 9122,000;170,06444
1333,23;13498,000; 2137,000; 8853,000;169,16319
1337,42;13630,000; 2453,000; 9095,000;168,27763
1341,60;12951,000; 2063,000; 8573,000;167,25038
1345,78;12993,000; 2407,000; 8779,000;166,13308
1349,96;12403,000; 1977,000; 8295,000;165,02058
1354,13;12441,000; 2218,000; 8428,000;164,62158
1358,29;12039,000; 2040,000; 8181,000;162,82364
1362,46;11965,000; 2455,000; 8370,000;160,77768
1366,61;11636,000; 2409,000; 8197,000;159,41603
1370,76;10963,000; 2106,000; 7751,000;156,89991
1374,91;11012,000; 2653,000; 8072,000;154,25355
1379,05;10021,000; 2056,000; 7236,000;153,76448
1383,18;10760,000; 2983,000; 8057,000;153,27158
1387,32; 9864,000; 2042,000; 7174,000;152,41621
1391,44; 9809,000; 2029,000; 7155,000;151,77526
1395,56;10606,000; 2838,000; 7994,000;150,65943
1399,68; 9738,000; 1864,000; 7116,000;149,92384
1403,79;10006,000; 2045,000; 7382,000;149,16620
1407,90; 9898,000; 1975,000; 7279,000;149,37783
1412,00;10040,000; 2064,000; 7433,000;148,55653
1416,10;10433,000; 2407,000; 7775,000;149,51565
1420,19;10065,000; 2106,000; 7422,000;149,71783
1424,27;10243,000; 2292,000; 7597,000;149,87747
1428,36;10231,000; 2373,000; 7627,000;149,56224
1432,43;10334,000; 2538,000; 7760,000;149,29146
1436,50; 9956,000; 2221,000; 7397,000;149,43972
1440,57;10122,000; 2379,000; 7559,000;149,47876
1444,63; 9765,000; 2054,000; 7190,000;150,13629
1448,69; 9497,000; 1832,000; 6909,000;150,97499
1452,74; 9757,000; 2149,000; 7178,000;151,28256
1456,79; 9514,000; 1924,000; 6934,000;151,49701
1460,83; 9579,000; 2085,000; 7017,000;151,94647
1464,87; 9774,000; 2389,000; 7273,000;151,20803
1468,90; 9774,000; 2366,000; 7250,000;151,67895
1472,93; 9612,000; 2274,000; 7073,000;152,90686
1476,95; 9591,000; 2304,000; 7073,000;152,79933
1480,96; 9207,000; 2026,000; 6740,000;152,33347
1484,98; 9405,000; 2214,000; 6916,000;152,93492
1488,98; 9389,000; 2321,000; 6981,000;151,67382
1492,98; 9396,000; 2415,000; 6974,000;153,12569
1496,98; 8983,000; 2066,000; 6594,000;152,76060
1500,97; 9313,000; 2503,000; 6934,000;153,68991
1504,96; 8696,000; 1869,000; 6310,000;153,72664
1508,94; 9272,000; 2442,000; 6874,000;154,10650
1512,92; 8816,000; 2047,000; 6459,000;153,42248
1516,89; 8897,000; 2181,000; 6559,000;153,40338
1520,85; 8696,000; 2039,000; 6397,000;152,75356
1524,81; 9176,000; 2622,000; 6923,000;152,38317
1528,77; 8618,000; 1993,000; 6335,000;152,57946
1532,72; 8612,000; 2083,000; 6385,000;151,76662
1536,67; 8974,000; 2574,000; 6827,000;150,48201
1540,61; 8284,000; 2053,000; 6158,000;151,79050
1544,54; 8628,000; 2397,000; 6559,000;149,71168
1548,47; 8025,000; 1870,000; 5963,000;150,37870
1552,40; 8412,000; 2311,000; 6340,000;151,42715
1556,32; 8315,000; 2289,000; 6299,000;150,27431
1560,23; 8036,000; 2216,000; 6063,000;151,28672
1564,15; 8106,000; 2266,000; 6123,000;151,41302
1568,05; 7874,000; 2111,000; 5937,000;150,62729
1571,95; 8078,000; 2431,000; 6174,000;150,86829
1575,84; 7625,000; 2066,000; 5767,000;150,20265
1579,73; 7820,000; 2334,000; 5973,000;150,75570
1583,62; 7645,000; 2251,000; 5853,000;149,75014
1587,50; 7295,000; 1973,000; 5552,000;148,70075
1591,37; 7751,000; 2501,000; 6051,000;147,88732
1595,24; 7352,000; 2195,000; 5695,000;147,34286
1599,11; 7026,000; 1935,000; 5426,000;145,83214
1602,96; 6934,000; 2027,000; 5422,000;144,53608
1606,82; 6743,000; 1926,000; 5276,000;143,79104
1610,67; 6863,000; 2202,000; 5507,000;141,02874
1614,51; 6912,000; 2375,000; 5635,000;139,17178
1618,35; 6327,000; 1955,000; 5143,000;137,13927
1622,18; 6365,000; 2163,000; 5307,000;133,65140
1626,01; 6241,000; 2191,000; 5286,000;130,85622
1629,83; 6103,000; 2237,000; 5309,000;125,84635
1633,65; 6100,000; 2363,000; 5411,000;122,60499
1637,46; 5711,000; 2065,000; 5041,000;122,51344
1641,27; 5624,000; 2043,000; 4995,000;121,30759
1645,07; 5538,000; 2025,000; 4923,000;121,22153
1648,86; 5429,000; 2022,000; 4872,000;119,54386
1652,66; 5342,000; 2009,000; 4849,000;117,35915
1656,44; 5273,000; 2080,000; 4866,000;114,60876
1660,22; 5264,000; 2279,000; 5011,000;109,26061
1664,00; 5237,000; 2386,000; 5119,000;104,31760
1667,77; 4888,000; 2147,000; 4820,000;102,54396
1671,53; 4673,000; 2096,000; 4676,000;99,88372
1675,29; 4520,000; 1956,000; 4597,000;97,08444
1679,05; 4762,000; 2235,000; 4841,000;96,96853
1682,80; 4610,000; 2121,000; 4673,000;97,53135
1686,54; 4842,000; 2345,000; 4882,000;98,42333
1690,28; 4796,000; 2330,000; 4848,000;97,93487
1694,01; 4370,000; 1942,000; 4390,000;99,18301
1697,74; 4501,000; 2079,000; 4510,000;99,62978
1701,46; 4675,000; 2282,000; 4676,000;99,95823
1705,18; 4357,000; 2006,000; 4351,000;100,25586
1708,89; 4250,000; 1911,000; 4242,000;100,34320
1712,60; 4607,000; 2253,000; 4569,000;101,64076
1716,30; 4586,000; 2295,000; 4547,000;101,73179
1720,00; 4653,000; 2337,000; 4572,000;103,62416
1723,69; 4560,000; 2261,000; 4469,000;104,12138
1727,38; 4161,000; 1905,000; 4079,000;103,77185
1731,06; 4477,000; 2204,000; 4366,000;105,13414
1734,73; 4433,000; 2153,000; 4269,000;107,75047
1738,40; 4264,000; 1998,000; 4086,000;108,52490
1742,07; 4638,000; 2398,000; 4492,000;106,97230
1745,73; 4256,000; 2036,000; 4113,000;106,88493
1749,38; 4454,000; 2316,000; 4333,000;105,99901
1753,03; 4478,000; 2360,000; 4336,000;107,18623
1756,67; 4222,000; 2169,000; 4109,000;105,82474
1760,31; 4337,000; 2287,000; 4202,000;107,04961
1763,94; 4268,000; 2226,000; 4114,000;108,15678
1767,57; 4229,000; 2202,000; 4056,000;109,33118
1771,19; 4045,000; 2090,000; 3874,000;109,58520
1774,81; 4219,000; 2248,000; 4032,000;110,48206
1778,42; 4208,000; 2269,000; 4027,000;110,29579
1782,03; 4000,000; 2095,000; 3823,000;110,24306
1785,63; 3904,000; 2035,000; 3722,000;110,78838
1789,22; 3964,000; 2111,000; 3791,000;110,29762
1792,81; 3787,000; 1992,000; 3582,000;112,89308
1796,40; 3688,000; 1886,000; 3487,000;112,55465
1799,98; 4268,000; 2449,000; 4025,000;115,41878
1803,55; 3976,000; 2183,000; 3731,000;115,82687
1807,12; 3808,000; 2061,000; 3579,000;115,08564
1810,68; 4435,000; 2694,000; 4197,000;115,83500
1814,24; 3694,000; 1955,000; 3431,000;117,81843
1817,79; 4190,000; 2464,000; 3918,000;118,70702
1821,34; 4312,000; 2605,000; 4045,000;118,54167
1824,88; 3726,000; 2018,000; 3427,000;121,22072
1828,41; 3969,000; 2289,000; 3672,000;121,47505
1831,94; 3783,000; 2125,000; 3487,000;121,73275
1835,47; 3533,000; 1906,000; 3243,000;121,69035
1838,99; 3900,000; 2296,000; 3612,000;121,88450
1842,50; 3697,000; 2133,000; 3433,000;120,30769
1846,01; 3544,000; 2020,000; 3270,000;121,92000
1849,51; 3339,000; 1814,000; 3091,000;119,42052
1853,01; 3448,000; 1929,000; 3201,000;119,41824
1856,50; 4202,000; 2700,000; 3984,000;116,97819
1859,99; 3338,000; 1862,000; 3058,000;123,41137
1863,47; 3656,000; 2216,000; 3413,000;120,30075
1866,94; 3419,000; 2005,000; 3183,000;120,03396
1870,41; 3812,000; 2432,000; 3602,000;117,94872
1873,88; 3591,000; 2210,000; 3354,000;120,71678
1877,34; 3863,000; 2493,000; 3625,000;121,02473
1880,79; 3716,000; 2396,000; 3490,000;120,65814
1884,24; 3703,000; 2396,000; 3479,000;120,68329
1887,68; 3276,000; 2020,000; 3039,000;123,25810
1891,12; 3149,000; 1891,000; 2931,000;120,96154
1894,55; 3253,000; 2022,000; 3034,000;121,64032
1897,98; 3508,000; 2272,000; 3275,000;123,23031
1901,40; 3263,000; 2030,000; 3031,000;123,17682

