927_PVC_FCR_3
Integration time [ms]: 100,000
Averaging Nr. [scans]: 1
Smoothing Nr. [pixels]: 0
Data measured with spectrometer [name]: 1204091U1
Wave   ;Sample   ;Dark     ;Reference;Reflectance
[nm]   ;[counts] ;[counts] ;[counts] ;[%]

1014,48; 3281,000; 2159,000; 6686,000;24,78463
1019,01; 3442,000; 2263,000; 7134,000;24,20448
1023,54; 3707,000; 2460,000; 7582,000;24,34596
1028,07; 3644,000; 2357,000; 7740,000;23,90860
1032,59; 3592,000; 2222,000; 7947,000;23,93013
1037,10; 3686,000; 2251,000; 8409,000;23,30302
1041,62; 3825,000; 2335,000; 8775,000;23,13665
1046,12; 4353,000; 2824,000; 9555,000;22,71579
1050,62; 3874,000; 2300,000; 9240,000;22,68012
1055,12; 3808,000; 2181,000; 9387,000;22,57841
1059,62; 3643,000; 2009,000; 9358,000;22,23432
1064,10; 4078,000; 2401,000;10031,000;21,97903
1068,59; 4304,000; 2570,000;10411,000;22,11453
1073,07; 4151,000; 2356,000;10516,000;21,99755
1077,54; 4106,000; 2278,000;10631,000;21,88435
1082,01; 4359,000; 2486,000;11025,000;21,93465
1086,48; 4413,000; 2488,000;11325,000;21,78341
1090,94; 4002,000; 2081,000;10975,000;21,59883
1095,39; 5051,000; 3026,000;12290,000;21,85881
1099,85; 4403,000; 2345,000;11921,000;21,49123
1104,29; 4517,000; 2403,000;12226,000;21,52092
1108,73; 4202,000; 2060,000;12064,000;21,41144
1113,17; 4941,000; 2768,000;12897,000;21,45325
1117,61; 4585,000; 2351,000;12709,000;21,56787
1122,03; 4945,000; 2714,000;13178,000;21,32072
1126,46; 4490,000; 2237,000;12873,000;21,18278
1130,88; 4437,000; 2154,000;12946,000;21,15456
1135,29; 5114,000; 2780,000;13624,000;21,52342
1139,70; 4494,000; 2109,000;13204,000;21,49617
1144,11; 4610,000; 2181,000;13375,000;21,69912
1148,51; 4703,000; 2244,000;13522,000;21,80351
1152,90; 4742,000; 2301,000;13707,000;21,40102
1157,29; 4469,000; 2006,000;13470,000;21,48465
1161,68; 4747,000; 2262,000;13824,000;21,49282
1166,06; 4751,000; 2248,000;13803,000;21,66162
1170,44; 4975,000; 2494,000;13961,000;21,63600
1174,81; 4623,000; 2196,000;13387,000;21,68707
1179,18; 4796,000; 2339,000;13505,000;22,00430
1183,54; 4945,000; 2531,000;13570,000;21,86792
1187,90; 5019,000; 2580,000;13523,000;22,28822
1192,25; 4815,000; 2379,000;13172,000;22,57018
1196,60; 4661,000; 2222,000;12903,000;22,83494
1200,94; 4888,000; 2485,000;12994,000;22,86611
1205,28; 4658,000; 2285,000;12529,000;23,16478
1209,62; 4789,000; 2418,000;12639,000;23,19734
1213,95; 4911,000; 2543,000;12596,000;23,55516
1218,27; 4456,000; 2113,000;12057,000;23,56195
1222,59; 5028,000; 2762,000;12319,000;23,71037
1226,91; 4783,000; 2482,000;12036,000;24,08415
1231,22; 4500,000; 2269,000;11621,000;23,85586
1235,52; 4175,000; 1935,000;11126,000;24,37167
1239,82; 4560,000; 2360,000;11354,000;24,46075
1244,12; 4330,000; 2191,000;10953,000;24,41223
1248,41; 4623,000; 2519,000;11152,000;24,37160
1252,70; 3892,000; 1808,000;10246,000;24,69780
1256,98; 4167,000; 2069,000;10481,000;24,94056
1261,26; 4642,000; 2578,000;10887,000;24,84053
1265,53; 3953,000; 1911,000;10040,000;25,11994
1269,80; 4123,000; 2085,000;10196,000;25,12637
1274,06; 4476,000; 2472,000;10429,000;25,18537
1278,32; 4241,000; 2246,000;10116,000;25,34943
1282,57; 4295,000; 2315,000;10115,000;25,38462
1286,82; 4124,000; 2159,000; 9878,000;25,45667
1291,06; 4375,000; 2434,000; 9974,000;25,74271
1295,30; 4296,000; 2354,000; 9886,000;25,78332
1299,53; 4446,000; 2461,000;10030,000;26,22539
1303,76; 4267,000; 2315,000; 9771,000;26,18026
1307,99; 4572,000; 2633,000;10041,000;26,17441
1312,20; 4493,000; 2539,000; 9875,000;26,63577
1316,42; 4078,000; 2175,000; 9339,000;26,56337
1320,63; 4135,000; 2246,000; 9303,000;26,76775
1324,83; 3759,000; 1875,000; 8811,000;27,16263
1329,03; 4192,000; 2294,000; 9122,000;27,79731
1333,23; 3944,000; 2137,000; 8853,000;26,90590
1337,42; 4225,000; 2453,000; 9095,000;26,67871
1341,60; 3787,000; 2063,000; 8573,000;26,48233
1345,78; 4107,000; 2407,000; 8779,000;26,67922
1349,96; 3658,000; 1977,000; 8295,000;26,60652
1354,13; 3858,000; 2218,000; 8428,000;26,40902
1358,29; 3666,000; 2040,000; 8181,000;26,47777
1362,46; 4039,000; 2455,000; 8370,000;26,77937
1366,61; 3965,000; 2409,000; 8197,000;26,88321
1370,76; 3643,000; 2106,000; 7751,000;27,22764
1374,91; 4171,000; 2653,000; 8072,000;28,01255
1379,05; 3511,000; 2056,000; 7236,000;28,08880
1383,18; 4413,000; 2983,000; 8057,000;28,18289
1387,32; 3472,000; 2042,000; 7174,000;27,86438
1391,44; 3469,000; 2029,000; 7155,000;28,09208
1395,56; 4291,000; 2838,000; 7994,000;28,18076
1399,68; 3311,000; 1864,000; 7116,000;27,55141
1403,79; 3544,000; 2045,000; 7382,000;28,08694
1407,90; 3450,000; 1975,000; 7279,000;27,80920
1412,00; 3572,000; 2064,000; 7433,000;28,08717
1416,10; 3969,000; 2407,000; 7775,000;29,09836
1420,19; 3629,000; 2106,000; 7422,000;28,64936
1424,27; 3824,000; 2292,000; 7597,000;28,87842
1428,36; 3897,000; 2373,000; 7627,000;29,00647
1432,43; 4052,000; 2538,000; 7760,000;28,99272
1436,50; 3736,000; 2221,000; 7397,000;29,26971
1440,57; 3908,000; 2379,000; 7559,000;29,51737
1444,63; 3558,000; 2054,000; 7190,000;29,28349
1448,69; 3350,000; 1832,000; 6909,000;29,89955
1452,74; 3666,000; 2149,000; 7178,000;30,16504
1456,79; 3444,000; 1924,000; 6934,000;30,33932
1460,83; 3598,000; 2085,000; 7017,000;30,67721
1464,87; 3903,000; 2389,000; 7273,000;30,99918
1468,90; 3861,000; 2366,000; 7250,000;30,61016
1472,93; 3817,000; 2274,000; 7073,000;32,15253
1476,95; 3844,000; 2304,000; 7073,000;32,29189
1480,96; 3545,000; 2026,000; 6740,000;32,22317
1484,98; 3745,000; 2214,000; 6916,000;32,56061
1488,98; 3848,000; 2321,000; 6981,000;32,76824
1492,98; 3918,000; 2415,000; 6974,000;32,96776
1496,98; 3574,000; 2066,000; 6594,000;33,30389
1500,97; 3980,000; 2503,000; 6934,000;33,33333
1504,96; 3346,000; 1869,000; 6310,000;33,25828
1508,94; 3948,000; 2442,000; 6874,000;33,98014
1512,92; 3531,000; 2047,000; 6459,000;33,63554
1516,89; 3659,000; 2181,000; 6559,000;33,75971
1520,85; 3530,000; 2039,000; 6397,000;34,21294
1524,81; 4083,000; 2622,000; 6923,000;33,96884
1528,77; 3474,000; 1993,000; 6335,000;34,10871
1532,72; 3561,000; 2083,000; 6385,000;34,35611
1536,67; 4013,000; 2574,000; 6827,000;33,83494
1540,61; 3481,000; 2053,000; 6158,000;34,78685
1544,54; 3849,000; 2397,000; 6559,000;34,88707
1548,47; 3263,000; 1870,000; 5963,000;34,03372
1552,40; 3730,000; 2311,000; 6340,000;35,21966
1556,32; 3702,000; 2289,000; 6299,000;35,23691
1560,23; 3592,000; 2216,000; 6063,000;35,76813
1564,15; 3648,000; 2266,000; 6123,000;35,83096
1568,05; 3503,000; 2111,000; 5937,000;36,38265
1571,95; 3803,000; 2431,000; 6174,000;36,65509
1575,84; 3439,000; 2066,000; 5767,000;37,09808
1579,73; 3680,000; 2334,000; 5973,000;36,98818
1583,62; 3600,000; 2251,000; 5853,000;37,45142
1587,50; 3299,000; 1973,000; 5552,000;37,04946
1591,37; 3835,000; 2501,000; 6051,000;37,57746
1595,24; 3505,000; 2195,000; 5695,000;37,42857
1599,11; 3228,000; 1935,000; 5426,000;37,03810
1602,96; 3294,000; 2027,000; 5422,000;37,31959
1606,82; 3161,000; 1926,000; 5276,000;36,86567
1610,67; 3415,000; 2202,000; 5507,000;36,70197
1614,51; 3558,000; 2375,000; 5635,000;36,28834
1618,35; 3132,000; 1955,000; 5143,000;36,91970
1622,18; 3329,000; 2163,000; 5307,000;37,08651
1626,01; 3300,000; 2191,000; 5286,000;35,83199
1629,83; 3331,000; 2237,000; 5309,000;35,61198
1633,65; 3429,000; 2363,000; 5411,000;34,97375
1637,46; 3092,000; 2065,000; 5041,000;34,50941
1641,27; 2988,000; 2043,000; 4995,000;32,01220
1645,07; 2912,000; 2025,000; 4923,000;30,60732
1648,86; 2869,000; 2022,000; 4872,000;29,71930
1652,66; 2790,000; 2009,000; 4849,000;27,50000
1656,44; 2864,000; 2080,000; 4866,000;28,14070
1660,22; 3032,000; 2279,000; 5011,000;27,56223
1664,00; 3172,000; 2386,000; 5119,000;28,75960
1667,77; 2952,000; 2147,000; 4820,000;30,11597
1671,53; 2927,000; 2096,000; 4676,000;32,20930
1675,29; 2824,000; 1956,000; 4597,000;32,86634
1679,05; 3114,000; 2235,000; 4841,000;33,72985
1682,80; 3008,000; 2121,000; 4673,000;34,75705
1686,54; 3246,000; 2345,000; 4882,000;35,51439
1690,28; 3259,000; 2330,000; 4848,000;36,89436
1694,01; 2840,000; 1942,000; 4390,000;36,68301
1697,74; 2975,000; 2079,000; 4510,000;36,85726
1701,46; 3170,000; 2282,000; 4676,000;37,09273
1705,18; 2885,000; 2006,000; 4351,000;37,48401
1708,89; 2793,000; 1911,000; 4242,000;37,83784
1712,60; 3148,000; 2253,000; 4569,000;38,64421
1716,30; 3151,000; 2295,000; 4547,000;38,01066
1720,00; 3187,000; 2337,000; 4572,000;38,03132
1723,69; 3152,000; 2261,000; 4469,000;40,35326
1727,38; 2770,000; 1905,000; 4079,000;39,78841
1731,06; 3070,000; 2204,000; 4366,000;40,05550
1734,73; 3029,000; 2153,000; 4269,000;41,39887
1738,40; 2891,000; 1998,000; 4086,000;42,76820
1742,07; 3286,000; 2398,000; 4492,000;42,40688
1745,73; 2937,000; 2036,000; 4113,000;43,37987
1749,38; 3203,000; 2316,000; 4333,000;43,97620
1753,03; 3252,000; 2360,000; 4336,000;45,14170
1756,67; 3019,000; 2169,000; 4109,000;43,81443
1760,31; 3165,000; 2287,000; 4202,000;45,84856
1763,94; 3080,000; 2226,000; 4114,000;45,23305
1767,57; 3061,000; 2202,000; 4056,000;46,33225
1771,19; 2914,000; 2090,000; 3874,000;46,18834
1774,81; 3071,000; 2248,000; 4032,000;46,13229
1778,42; 3078,000; 2269,000; 4027,000;46,01820
1782,03; 2902,000; 2095,000; 3823,000;46,70139
1785,63; 2842,000; 2035,000; 3722,000;47,83640
1789,22; 2905,000; 2111,000; 3791,000;47,26190
1792,81; 2765,000; 1992,000; 3582,000;48,61635
1796,40; 2681,000; 1886,000; 3487,000;49,65646
1799,98; 3225,000; 2449,000; 4025,000;49,23858
1803,55; 2963,000; 2183,000; 3731,000;50,38760
1807,12; 2818,000; 2061,000; 3579,000;49,86825
1810,68; 3474,000; 2694,000; 4197,000;51,89621
1814,24; 2726,000; 1955,000; 3431,000;52,23577
1817,79; 3250,000; 2464,000; 3918,000;54,05777
1821,34; 3387,000; 2605,000; 4045,000;54,30556
1824,88; 2783,000; 2018,000; 3427,000;54,29383
1828,41; 3039,000; 2289,000; 3672,000;54,22993
1831,94; 2865,000; 2125,000; 3487,000;54,33186
1835,47; 2661,000; 1906,000; 3243,000;56,46971
1838,99; 3025,000; 2296,000; 3612,000;55,39514
1842,50; 2855,000; 2133,000; 3433,000;55,53846
1846,01; 2713,000; 2020,000; 3270,000;55,44000
1849,51; 2532,000; 1814,000; 3091,000;56,22553
1853,01; 2632,000; 1929,000; 3201,000;55,26730
1856,50; 3444,000; 2700,000; 3984,000;57,94393
1859,99; 2547,000; 1862,000; 3058,000;57,27425
1863,47; 2902,000; 2216,000; 3413,000;57,30994
1866,94; 2684,000; 2005,000; 3183,000;57,64007
1870,41; 3104,000; 2432,000; 3602,000;57,43590
1873,88; 2904,000; 2210,000; 3354,000;60,66434
1877,34; 3179,000; 2493,000; 3625,000;60,60071
1880,79; 3061,000; 2396,000; 3490,000;60,78611
1884,24; 3048,000; 2396,000; 3479,000;60,20314
1887,68; 2664,000; 2020,000; 3039,000;63,19921
1891,12; 2510,000; 1891,000; 2931,000;59,51923
1894,55; 2643,000; 2022,000; 3034,000;61,36364
1897,98; 2882,000; 2272,000; 3275,000;60,81755
1901,40; 2622,000; 2030,000; 3031,000;59,14086

