A_PLA_FCR_1
Integration time [ms]: 100,000
Averaging Nr. [scans]: 1
Smoothing Nr. [pixels]: 0
Data measured with spectrometer [name]: 1204091U1
Wave   ;Sample   ;Dark     ;Reference;Reflectance
[nm]   ;[counts] ;[counts] ;[counts] ;[%]

1014,48; 5371,000; 2159,000; 6686,000;70,95207
1019,01; 5679,000; 2263,000; 7134,000;70,12934
1023,54; 6072,000; 2460,000; 7582,000;70,51933
1028,07; 6109,000; 2357,000; 7740,000;69,70091
1032,59; 6180,000; 2222,000; 7947,000;69,13537
1037,10; 6481,000; 2251,000; 8409,000;68,69113
1041,62; 6733,000; 2335,000; 8775,000;68,29193
1046,12; 7406,000; 2824,000; 9555,000;68,07309
1050,62; 7010,000; 2300,000; 9240,000;67,86744
1055,12; 7062,000; 2181,000; 9387,000;67,73522
1059,62; 6958,000; 2009,000; 9358,000;67,34250
1064,10; 7522,000; 2401,000;10031,000;67,11664
1068,59; 7821,000; 2570,000;10411,000;66,96850
1073,07; 7801,000; 2356,000;10516,000;66,72794
1077,54; 7815,000; 2278,000;10631,000;66,28756
1082,01; 8141,000; 2486,000;11025,000;66,22555
1086,48; 8331,000; 2488,000;11325,000;66,11972
1090,94; 7934,000; 2081,000;10975,000;65,80841
1095,39; 9150,000; 3026,000;12290,000;66,10535
1099,85; 8613,000; 2345,000;11921,000;65,45530
1104,29; 8826,000; 2403,000;12226,000;65,38736
1108,73; 8609,000; 2060,000;12064,000;65,46381
1113,17; 9357,000; 2768,000;12897,000;65,05084
1117,61; 9059,000; 2351,000;12709,000;64,76154
1122,03; 9474,000; 2714,000;13178,000;64,60245
1126,46; 9081,000; 2237,000;12873,000;64,34750
1130,88; 9004,000; 2154,000;12946,000;63,47294
1135,29; 9654,000; 2780,000;13624,000;63,38989
1139,70; 9071,000; 2109,000;13204,000;62,74899
1144,11; 9177,000; 2181,000;13375,000;62,49777
1148,51; 9236,000; 2244,000;13522,000;61,99681
1152,90; 9244,000; 2301,000;13707,000;60,87147
1157,29; 8911,000; 2006,000;13470,000;60,23203
1161,68; 9139,000; 2262,000;13824,000;59,47933
1166,06; 9096,000; 2248,000;13803,000;59,26439
1170,44; 9244,000; 2494,000;13961,000;58,86457
1174,81; 8794,000; 2196,000;13387,000;58,95809
1179,18; 9031,000; 2339,000;13505,000;59,93194
1183,54; 9265,000; 2531,000;13570,000;61,00190
1187,90; 9418,000; 2580,000;13523,000;62,48743
1192,25; 9204,000; 2379,000;13172,000;63,23543
1196,60; 9009,000; 2222,000;12903,000;63,54274
1200,94; 9207,000; 2485,000;12994,000;63,96422
1205,28; 8908,000; 2285,000;12529,000;64,65248
1209,62; 9059,000; 2418,000;12639,000;64,97407
1213,95; 9150,000; 2543,000;12596,000;65,72168
1218,27; 8672,000; 2113,000;12057,000;65,95937
1222,59; 9111,000; 2762,000;12319,000;66,43298
1226,91; 8836,000; 2482,000;12036,000;66,50618
1231,22; 8495,000; 2269,000;11621,000;66,57399
1235,52; 8089,000; 1935,000;11126,000;66,95681
1239,82; 8398,000; 2360,000;11354,000;67,13364
1244,12; 8081,000; 2191,000;10953,000;67,22210
1248,41; 8348,000; 2519,000;11152,000;67,51998
1252,70; 7497,000; 1808,000;10246,000;67,42119
1256,98; 7752,000; 2069,000;10481,000;67,55825
1261,26; 8187,000; 2578,000;10887,000;67,50511
1265,53; 7404,000; 1911,000;10040,000;67,57289
1269,80; 7574,000; 2085,000;10196,000;67,67353
1274,06; 7872,000; 2472,000;10429,000;67,86477
1278,32; 7594,000; 2246,000;10116,000;67,95426
1282,57; 7619,000; 2315,000;10115,000;68,00000
1286,82; 7408,000; 2159,000; 9878,000;68,00104
1291,06; 7595,000; 2434,000; 9974,000;68,44828
1295,30; 7526,000; 2354,000; 9886,000;68,66702
1299,53; 7679,000; 2461,000;10030,000;68,93909
1303,76; 7473,000; 2315,000; 9771,000;69,17918
1307,99; 7762,000; 2633,000;10041,000;69,23596
1312,20; 7639,000; 2539,000; 9875,000;69,52017
1316,42; 7151,000; 2175,000; 9339,000;69,45840
1320,63; 7153,000; 2246,000; 9303,000;69,53380
1324,83; 6680,000; 1875,000; 8811,000;69,27624
1329,03; 7073,000; 2294,000; 9122,000;69,99121
1333,23; 6765,000; 2137,000; 8853,000;68,91007
1337,42; 6985,000; 2453,000; 9095,000;68,23246
1341,60; 6446,000; 2063,000; 8573,000;67,32719
1345,78; 6664,000; 2407,000; 8779,000;66,80791
1349,96; 6162,000; 1977,000; 8295,000;66,23932
1354,13; 6312,000; 2218,000; 8428,000;65,92593
1358,29; 6070,000; 2040,000; 8181,000;65,62449
1362,46; 6329,000; 2455,000; 8370,000;65,49451
1366,61; 6156,000; 2409,000; 8197,000;64,73739
1370,76; 5797,000; 2106,000; 7751,000;65,38530
1374,91; 6238,000; 2653,000; 8072,000;66,15612
1379,05; 5479,000; 2056,000; 7236,000;66,08108
1383,18; 6366,000; 2983,000; 8057,000;66,67324
1387,32; 5462,000; 2042,000; 7174,000;66,64069
1391,44; 5456,000; 2029,000; 7155,000;66,85525
1395,56; 6305,000; 2838,000; 7994,000;67,24205
1399,68; 5379,000; 1864,000; 7116,000;66,92688
1403,79; 5615,000; 2045,000; 7382,000;66,89151
1407,90; 5557,000; 1975,000; 7279,000;67,53394
1412,00; 5688,000; 2064,000; 7433,000;67,49860
1416,10; 6072,000; 2407,000; 7775,000;68,27496
1420,19; 5761,000; 2106,000; 7422,000;68,75470
1424,27; 5979,000; 2292,000; 7597,000;69,50047
1428,36; 5994,000; 2373,000; 7627,000;68,91892
1432,43; 6164,000; 2538,000; 7760,000;69,43700
1436,50; 5778,000; 2221,000; 7397,000;68,72102
1440,57; 5940,000; 2379,000; 7559,000;68,74517
1444,63; 5593,000; 2054,000; 7190,000;68,90576
1448,69; 5357,000; 1832,000; 6909,000;69,43077
1452,74; 5652,000; 2149,000; 7178,000;69,65600
1456,79; 5427,000; 1924,000; 6934,000;69,92016
1460,83; 5552,000; 2085,000; 7017,000;70,29603
1464,87; 5816,000; 2389,000; 7273,000;70,16790
1468,90; 5788,000; 2366,000; 7250,000;70,06552
1472,93; 5720,000; 2274,000; 7073,000;71,80663
1476,95; 5731,000; 2304,000; 7073,000;71,85993
1480,96; 5412,000; 2026,000; 6740,000;71,82860
1484,98; 5640,000; 2214,000; 6916,000;72,86261
1488,98; 5710,000; 2321,000; 6981,000;72,72532
1492,98; 5760,000; 2415,000; 6974,000;73,37135
1496,98; 5411,000; 2066,000; 6594,000;73,87367
1500,97; 5772,000; 2503,000; 6934,000;73,77567
1504,96; 5156,000; 1869,000; 6310,000;74,01486
1508,94; 5739,000; 2442,000; 6874,000;74,39079
1512,92; 5320,000; 2047,000; 6459,000;74,18404
1516,89; 5445,000; 2181,000; 6559,000;74,55459
1520,85; 5274,000; 2039,000; 6397,000;74,23130
1524,81; 5826,000; 2622,000; 6923,000;74,49430
1528,77; 5193,000; 1993,000; 6335,000;73,69876
1532,72; 5258,000; 2083,000; 6385,000;73,80288
1536,67; 5692,000; 2574,000; 6827,000;73,31296
1540,61; 5091,000; 2053,000; 6158,000;74,00731
1544,54; 5485,000; 2397,000; 6559,000;74,19510
1548,47; 4890,000; 1870,000; 5963,000;73,78451
1552,40; 5311,000; 2311,000; 6340,000;74,46016
1556,32; 5288,000; 2289,000; 6299,000;74,78803
1560,23; 5115,000; 2216,000; 6063,000;75,35742
1564,15; 5184,000; 2266,000; 6123,000;75,65465
1568,05; 5007,000; 2111,000; 5937,000;75,69263
1571,95; 5291,000; 2431,000; 6174,000;76,40930
1575,84; 4914,000; 2066,000; 5767,000;76,95218
1579,73; 5143,000; 2334,000; 5973,000;77,19154
1583,62; 5048,000; 2251,000; 5853,000;77,65130
1587,50; 4725,000; 1973,000; 5552,000;76,89299
1591,37; 5239,000; 2501,000; 6051,000;77,12676
1595,24; 4891,000; 2195,000; 5695,000;77,02857
1599,11; 4611,000; 1935,000; 5426,000;76,65425
1602,96; 4646,000; 2027,000; 5422,000;77,14286
1606,82; 4502,000; 1926,000; 5276,000;76,89552
1610,67; 4733,000; 2202,000; 5507,000;76,58094
1614,51; 4867,000; 2375,000; 5635,000;76,44172
1618,35; 4407,000; 1955,000; 5143,000;76,91343
1622,18; 4581,000; 2163,000; 5307,000;76,90840
1626,01; 4577,000; 2191,000; 5286,000;77,09208
1629,83; 4576,000; 2237,000; 5309,000;76,13932
1633,65; 4681,000; 2363,000; 5411,000;76,04987
1637,46; 4347,000; 2065,000; 5041,000;76,68011
1641,27; 4270,000; 2043,000; 4995,000;75,44038
1645,07; 4202,000; 2025,000; 4923,000;75,12077
1648,86; 4160,000; 2022,000; 4872,000;75,01754
1652,66; 4088,000; 2009,000; 4849,000;73,20423
1656,44; 4123,000; 2080,000; 4866,000;73,33094
1660,22; 4257,000; 2279,000; 5011,000;72,40117
1664,00; 4303,000; 2386,000; 5119,000;70,14270
1667,77; 4000,000; 2147,000; 4820,000;69,32286
1671,53; 3896,000; 2096,000; 4676,000;69,76744
1675,29; 3759,000; 1956,000; 4597,000;68,26959
1679,05; 4008,000; 2235,000; 4841,000;68,03530
1682,80; 3853,000; 2121,000; 4673,000;67,86834
1686,54; 4114,000; 2345,000; 4882,000;69,72803
1690,28; 4102,000; 2330,000; 4848,000;70,37331
1694,01; 3669,000; 1942,000; 4390,000;70,54739
1697,74; 3762,000; 2079,000; 4510,000;69,23077
1701,46; 3938,000; 2282,000; 4676,000;69,17293
1705,18; 3599,000; 2006,000; 4351,000;67,93177
1708,89; 3493,000; 1911,000; 4242,000;67,86787
1712,60; 3800,000; 2253,000; 4569,000;66,79620
1716,30; 3827,000; 2295,000; 4547,000;68,02842
1720,00; 3853,000; 2337,000; 4572,000;67,82998
1723,69; 3793,000; 2261,000; 4469,000;69,38406
1727,38; 3436,000; 1905,000; 4079,000;70,42318
1731,06; 3748,000; 2204,000; 4366,000;71,41536
1734,73; 3709,000; 2153,000; 4269,000;73,53497
1738,40; 3570,000; 1998,000; 4086,000;75,28736
1742,07; 3970,000; 2398,000; 4492,000;75,07163
1745,73; 3616,000; 2036,000; 4113,000;76,07126
1749,38; 3888,000; 2316,000; 4333,000;77,93753
1753,03; 3942,000; 2360,000; 4336,000;80,06073
1756,67; 3723,000; 2169,000; 4109,000;80,10309
1760,31; 3847,000; 2287,000; 4202,000;81,46214
1763,94; 3774,000; 2226,000; 4114,000;81,99153
1767,57; 3738,000; 2202,000; 4056,000;82,84790
1771,19; 3593,000; 2090,000; 3874,000;84,24888
1774,81; 3727,000; 2248,000; 4032,000;82,90359
1778,42; 3723,000; 2269,000; 4027,000;82,70762
1782,03; 3527,000; 2095,000; 3823,000;82,87037
1785,63; 3449,000; 2035,000; 3722,000;83,81743
1789,22; 3508,000; 2111,000; 3791,000;83,15476
1792,81; 3325,000; 1992,000; 3582,000;83,83648
1796,40; 3243,000; 1886,000; 3487,000;84,75953
1799,98; 3787,000; 2449,000; 4025,000;84,89848
1803,55; 3510,000; 2183,000; 3731,000;85,72351
1807,12; 3384,000; 2061,000; 3579,000;87,15415
1810,68; 4010,000; 2694,000; 4197,000;87,55822
1814,24; 3255,000; 1955,000; 3431,000;88,07588
1817,79; 3773,000; 2464,000; 3918,000;90,02751
1821,34; 3925,000; 2605,000; 4045,000;91,66667
1824,88; 3310,000; 2018,000; 3427,000;91,69624
1828,41; 3569,000; 2289,000; 3672,000;92,55242
1831,94; 3435,000; 2125,000; 3487,000;96,18209
1835,47; 3192,000; 1906,000; 3243,000;96,18549
1838,99; 3572,000; 2296,000; 3612,000;96,96049
1842,50; 3391,000; 2133,000; 3433,000;96,76923
1846,01; 3238,000; 2020,000; 3270,000;97,44000
1849,51; 3053,000; 1814,000; 3091,000;97,02428
1853,01; 3134,000; 1929,000; 3201,000;94,73270
1856,50; 3922,000; 2700,000; 3984,000;95,17134
1859,99; 3025,000; 1862,000; 3058,000;97,24080
1863,47; 3393,000; 2216,000; 3413,000;98,32916
1866,94; 3124,000; 2005,000; 3183,000;94,99151
1870,41; 3561,000; 2432,000; 3602,000;96,49573
1873,88; 3325,000; 2210,000; 3354,000;97,46503
1877,34; 3624,000; 2493,000; 3625,000;99,91166
1880,79; 3496,000; 2396,000; 3490,000;100,54845
1884,24; 3472,000; 2396,000; 3479,000;99,35365
1887,68; 3066,000; 2020,000; 3039,000;102,64966
1891,12; 2934,000; 1891,000; 2931,000;100,28846
1894,55; 3034,000; 2022,000; 3034,000;100,00000
1897,98; 3300,000; 2272,000; 3275,000;102,49252
1901,40; 3054,000; 2030,000; 3031,000;102,29770

