B_PLA_FCR_1
Integration time [ms]: 100,000
Averaging Nr. [scans]: 1
Smoothing Nr. [pixels]: 0
Data measured with spectrometer [name]: 1204091U1
Wave   ;Sample   ;Dark     ;Reference;Reflectance
[nm]   ;[counts] ;[counts] ;[counts] ;[%]

1014,48; 5940,000; 2159,000; 6686,000;83,52110
1019,01; 6301,000; 2263,000; 7134,000;82,89879
1023,54; 6699,000; 2460,000; 7582,000;82,76064
1028,07; 6792,000; 2357,000; 7740,000;82,38900
1032,59; 6889,000; 2222,000; 7947,000;81,51965
1037,10; 7254,000; 2251,000; 8409,000;81,24391
1041,62; 7544,000; 2335,000; 8775,000;80,88509
1046,12; 8251,000; 2824,000; 9555,000;80,62695
1050,62; 7854,000; 2300,000; 9240,000;80,02882
1055,12; 7934,000; 2181,000; 9387,000;79,83625
1059,62; 7865,000; 2009,000; 9358,000;79,68431
1064,10; 8502,000; 2401,000;10031,000;79,96068
1068,59; 8779,000; 2570,000;10411,000;79,18633
1073,07; 8791,000; 2356,000;10516,000;78,86029
1077,54; 8843,000; 2278,000;10631,000;78,59452
1082,01; 9190,000; 2486,000;11025,000;78,51036
1086,48; 9415,000; 2488,000;11325,000;78,38633
1090,94; 9033,000; 2081,000;10975,000;78,16506
1095,39;10255,000; 3026,000;12290,000;78,03325
1099,85; 9765,000; 2345,000;11921,000;77,48538
1104,29;10019,000; 2403,000;12226,000;77,53232
1108,73; 9763,000; 2060,000;12064,000;76,99920
1113,17;10576,000; 2768,000;12897,000;77,08560
1117,61;10299,000; 2351,000;12709,000;76,73296
1122,03;10706,000; 2714,000;13178,000;76,37615
1126,46;10303,000; 2237,000;12873,000;75,83678
1130,88;10247,000; 2154,000;12946,000;74,99073
1135,29;10890,000; 2780,000;13624,000;74,78790
1139,70;10347,000; 2109,000;13204,000;74,24966
1144,11;10449,000; 2181,000;13375,000;73,86100
1148,51;10527,000; 2244,000;13522,000;73,44387
1152,90;10533,000; 2301,000;13707,000;72,17254
1157,29;10165,000; 2006,000;13470,000;71,17062
1161,68;10387,000; 2262,000;13824,000;70,27331
1166,06;10346,000; 2248,000;13803,000;70,08222
1170,44;10473,000; 2494,000;13961,000;69,58228
1174,81; 9990,000; 2196,000;13387,000;69,64525
1179,18;10226,000; 2339,000;13505,000;70,63407
1183,54;10475,000; 2531,000;13570,000;71,96304
1187,90;10633,000; 2580,000;13523,000;73,59042
1192,25;10422,000; 2379,000;13172,000;74,52052
1196,60;10241,000; 2222,000;12903,000;75,07724
1200,94;10445,000; 2485,000;12994,000;75,74460
1205,28;10123,000; 2285,000;12529,000;76,51308
1209,62;10282,000; 2418,000;12639,000;76,93963
1213,95;10359,000; 2543,000;12596,000;77,74794
1218,27; 9886,000; 2113,000;12057,000;78,16774
1222,59;10288,000; 2762,000;12319,000;78,74856
1226,91;10019,000; 2482,000;12036,000;78,88842
1231,22; 9691,000; 2269,000;11621,000;79,36270
1235,52; 9255,000; 1935,000;11126,000;79,64313
1239,82; 9585,000; 2360,000;11354,000;80,33133
1244,12; 9210,000; 2191,000;10953,000;80,10728
1248,41; 9473,000; 2519,000;11152,000;80,55137
1252,70; 8603,000; 1808,000;10246,000;80,52856
1256,98; 8843,000; 2069,000;10481,000;80,52782
1261,26; 9288,000; 2578,000;10887,000;80,75581
1265,53; 8491,000; 1911,000;10040,000;80,94477
1269,80; 8670,000; 2085,000;10196,000;81,18604
1274,06; 8943,000; 2472,000;10429,000;81,32462
1278,32; 8633,000; 2246,000;10116,000;81,15629
1282,57; 8652,000; 2315,000;10115,000;81,24359
1286,82; 8451,000; 2159,000; 9878,000;81,51315
1291,06; 8605,000; 2434,000; 9974,000;81,84350
1295,30; 8531,000; 2354,000; 9886,000;82,01009
1299,53; 8686,000; 2461,000;10030,000;82,24336
1303,76; 8464,000; 2315,000; 9771,000;82,47049
1307,99; 8749,000; 2633,000;10041,000;82,55940
1312,20; 8614,000; 2539,000; 9875,000;82,81080
1316,42; 8137,000; 2175,000; 9339,000;83,22166
1320,63; 8119,000; 2246,000; 9303,000;83,22233
1324,83; 7642,000; 1875,000; 8811,000;83,14591
1329,03; 7988,000; 2294,000; 9122,000;83,39192
1333,23; 7665,000; 2137,000; 8853,000;82,31090
1337,42; 7874,000; 2453,000; 9095,000;81,61698
1341,60; 7313,000; 2063,000; 8573,000;80,64516
1345,78; 7493,000; 2407,000; 8779,000;79,81795
1349,96; 6982,000; 1977,000; 8295,000;79,21811
1354,13; 7114,000; 2218,000; 8428,000;78,84058
1358,29; 6867,000; 2040,000; 8181,000;78,60283
1362,46; 7102,000; 2455,000; 8370,000;78,56298
1366,61; 6920,000; 2409,000; 8197,000;77,93711
1370,76; 6513,000; 2106,000; 7751,000;78,06909
1374,91; 6913,000; 2653,000; 8072,000;78,61229
1379,05; 6155,000; 2056,000; 7236,000;79,13127
1383,18; 7043,000; 2983,000; 8057,000;80,01577
1387,32; 6136,000; 2042,000; 7174,000;79,77397
1391,44; 6142,000; 2029,000; 7155,000;80,23800
1395,56; 6974,000; 2838,000; 7994,000;80,21722
1399,68; 6061,000; 1864,000; 7116,000;79,91241
1403,79; 6295,000; 2045,000; 7382,000;79,63275
1407,90; 6230,000; 1975,000; 7279,000;80,22247
1412,00; 6373,000; 2064,000; 7433,000;80,25703
1416,10; 6807,000; 2407,000; 7775,000;81,96721
1420,19; 6454,000; 2106,000; 7422,000;81,79082
1424,27; 6669,000; 2292,000; 7597,000;82,50707
1428,36; 6695,000; 2373,000; 7627,000;82,26113
1432,43; 6854,000; 2538,000; 7760,000;82,65033
1436,50; 6499,000; 2221,000; 7397,000;82,65070
1440,57; 6643,000; 2379,000; 7559,000;82,31660
1444,63; 6276,000; 2054,000; 7190,000;82,20405
1448,69; 6049,000; 1832,000; 6909,000;83,06086
1452,74; 6347,000; 2149,000; 7178,000;83,47584
1456,79; 6109,000; 1924,000; 6934,000;83,53293
1460,83; 6241,000; 2085,000; 7017,000;84,26602
1464,87; 6492,000; 2389,000; 7273,000;84,00901
1468,90; 6476,000; 2366,000; 7250,000;84,15233
1472,93; 6365,000; 2274,000; 7073,000;85,24693
1476,95; 6402,000; 2304,000; 7073,000;85,92996
1480,96; 6074,000; 2026,000; 6740,000;85,87187
1484,98; 6294,000; 2214,000; 6916,000;86,77159
1488,98; 6358,000; 2321,000; 6981,000;86,63090
1492,98; 6414,000; 2415,000; 6974,000;87,71660
1496,98; 6059,000; 2066,000; 6594,000;88,18463
1500,97; 6439,000; 2503,000; 6934,000;88,82871
1504,96; 5811,000; 1869,000; 6310,000;88,76379
1508,94; 6399,000; 2442,000; 6874,000;89,28249
1512,92; 5979,000; 2047,000; 6459,000;89,12058
1516,89; 6091,000; 2181,000; 6559,000;89,31019
1520,85; 5927,000; 2039,000; 6397,000;89,21524
1524,81; 6465,000; 2622,000; 6923,000;89,35131
1528,77; 5839,000; 1993,000; 6335,000;88,57669
1532,72; 5881,000; 2083,000; 6385,000;88,28452
1536,67; 6341,000; 2574,000; 6827,000;88,57277
1540,61; 5707,000; 2053,000; 6158,000;89,01340
1544,54; 6106,000; 2397,000; 6559,000;89,11581
1548,47; 5495,000; 1870,000; 5963,000;88,56584
1552,40; 5932,000; 2311,000; 6340,000;89,87342
1556,32; 5902,000; 2289,000; 6299,000;90,09975
1560,23; 5699,000; 2216,000; 6063,000;90,53808
1564,15; 5765,000; 2266,000; 6123,000;90,71817
1568,05; 5589,000; 2111,000; 5937,000;90,90434
1571,95; 5840,000; 2431,000; 6174,000;91,07668
1575,84; 5451,000; 2066,000; 5767,000;91,46177
1579,73; 5679,000; 2334,000; 5973,000;91,92086
1583,62; 5566,000; 2251,000; 5853,000;92,03220
1587,50; 5262,000; 1973,000; 5552,000;91,89718
1591,37; 5762,000; 2501,000; 6051,000;91,85915
1595,24; 5451,000; 2195,000; 5695,000;93,02857
1599,11; 5135,000; 1935,000; 5426,000;91,66428
1602,96; 5139,000; 2027,000; 5422,000;91,66421
1606,82; 4983,000; 1926,000; 5276,000;91,25373
1610,67; 5201,000; 2202,000; 5507,000;90,74130
1614,51; 5343,000; 2375,000; 5635,000;91,04294
1618,35; 4853,000; 1955,000; 5143,000;90,90339
1622,18; 5039,000; 2163,000; 5307,000;91,47583
1626,01; 4999,000; 2191,000; 5286,000;90,72698
1629,83; 4996,000; 2237,000; 5309,000;89,81120
1633,65; 5097,000; 2363,000; 5411,000;89,69816
1637,46; 4768,000; 2065,000; 5041,000;90,82661
1641,27; 4675,000; 2043,000; 4995,000;89,15989
1645,07; 4611,000; 2025,000; 4923,000;89,23395
1648,86; 4550,000; 2022,000; 4872,000;88,70175
1652,66; 4480,000; 2009,000; 4849,000;87,00704
1656,44; 4488,000; 2080,000; 4866,000;86,43216
1660,22; 4565,000; 2279,000; 5011,000;83,67496
1664,00; 4629,000; 2386,000; 5119,000;82,07098
1667,77; 4309,000; 2147,000; 4820,000;80,88290
1671,53; 4182,000; 2096,000; 4676,000;80,85271
1675,29; 4058,000; 1956,000; 4597,000;79,59106
1679,05; 4310,000; 2235,000; 4841,000;79,62394
1682,80; 4150,000; 2121,000; 4673,000;79,50627
1686,54; 4382,000; 2345,000; 4882,000;80,29168
1690,28; 4407,000; 2330,000; 4848,000;82,48610
1694,01; 3977,000; 1942,000; 4390,000;83,12908
1697,74; 4063,000; 2079,000; 4510,000;81,61251
1701,46; 4237,000; 2282,000; 4676,000;81,66249
1705,18; 3885,000; 2006,000; 4351,000;80,12793
1708,89; 3739,000; 1911,000; 4242,000;78,42128
1712,60; 4078,000; 2253,000; 4569,000;78,79965
1716,30; 4073,000; 2295,000; 4547,000;78,95204
1720,00; 4108,000; 2337,000; 4572,000;79,23937
1723,69; 4028,000; 2261,000; 4469,000;80,02717
1727,38; 3661,000; 1905,000; 4079,000;80,77277
1731,06; 3993,000; 2204,000; 4366,000;82,74746
1734,73; 3972,000; 2153,000; 4269,000;85,96408
1738,40; 3836,000; 1998,000; 4086,000;88,02682
1742,07; 4236,000; 2398,000; 4492,000;87,77459
1745,73; 3878,000; 2036,000; 4113,000;88,68560
1749,38; 4154,000; 2316,000; 4333,000;91,12543
1753,03; 4180,000; 2360,000; 4336,000;92,10526
1756,67; 3980,000; 2169,000; 4109,000;93,35052
1760,31; 4108,000; 2287,000; 4202,000;95,09138
1763,94; 4003,000; 2226,000; 4114,000;94,12076
1767,57; 3967,000; 2202,000; 4056,000;95,19957
1771,19; 3838,000; 2090,000; 3874,000;97,98206
1774,81; 3968,000; 2248,000; 4032,000;96,41256
1778,42; 3958,000; 2269,000; 4027,000;96,07509
1782,03; 3769,000; 2095,000; 3823,000;96,87500
1785,63; 3675,000; 2035,000; 3722,000;97,21399
1789,22; 3735,000; 2111,000; 3791,000;96,66667
1792,81; 3560,000; 1992,000; 3582,000;98,61635
1796,40; 3463,000; 1886,000; 3487,000;98,50094
1799,98; 4008,000; 2449,000; 4025,000;98,92132
1803,55; 3721,000; 2183,000; 3731,000;99,35401
1807,12; 3595,000; 2061,000; 3579,000;101,05402
1810,68; 4214,000; 2694,000; 4197,000;101,13107
1814,24; 3467,000; 1955,000; 3431,000;102,43902
1817,79; 3954,000; 2464,000; 3918,000;102,47593
1821,34; 4114,000; 2605,000; 4045,000;104,79167
1824,88; 3509,000; 2018,000; 3427,000;105,81973
1828,41; 3777,000; 2289,000; 3672,000;107,59219
1831,94; 3619,000; 2125,000; 3487,000;109,69163
1835,47; 3377,000; 1906,000; 3243,000;110,02244
1838,99; 3753,000; 2296,000; 3612,000;110,71429
1842,50; 3584,000; 2133,000; 3433,000;111,61538
1846,01; 3424,000; 2020,000; 3270,000;112,32000
1849,51; 3229,000; 1814,000; 3091,000;110,80658
1853,01; 3324,000; 1929,000; 3201,000;109,66981
1856,50; 4118,000; 2700,000; 3984,000;110,43614
1859,99; 3224,000; 1862,000; 3058,000;113,87960
1863,47; 3556,000; 2216,000; 3413,000;111,94653
1866,94; 3294,000; 2005,000; 3183,000;109,42275
1870,41; 3714,000; 2432,000; 3602,000;109,57265
1873,88; 3503,000; 2210,000; 3354,000;113,02448
1877,34; 3776,000; 2493,000; 3625,000;113,33922
1880,79; 3638,000; 2396,000; 3490,000;113,52834
1884,24; 3623,000; 2396,000; 3479,000;113,29640
1887,68; 3217,000; 2020,000; 3039,000;117,46811
1891,12; 3077,000; 1891,000; 2931,000;114,03846
1894,55; 3182,000; 2022,000; 3034,000;114,62451
1897,98; 3451,000; 2272,000; 3275,000;117,54736
1901,40; 3197,000; 2030,000; 3031,000;116,58342

