DW901_PLA_FCR_2
Integration time [ms]: 100,000
Averaging Nr. [scans]: 1
Smoothing Nr. [pixels]: 0
Data measured with spectrometer [name]: 1204091U1
Wave   ;Sample   ;Dark     ;Reference;Reflectance
[nm]   ;[counts] ;[counts] ;[counts] ;[%]

1014,48; 6888,000; 2159,000; 6686,000;104,46212
1019,01; 7333,000; 2263,000; 7134,000;104,08540
1023,54; 7801,000; 2460,000; 7582,000;104,27567
1028,07; 7937,000; 2357,000; 7740,000;103,65967
1032,59; 8135,000; 2222,000; 7947,000;103,28384
1037,10; 8558,000; 2251,000; 8409,000;102,41962
1041,62; 8900,000; 2335,000; 8775,000;101,94099
1046,12; 9648,000; 2824,000; 9555,000;101,38167
1050,62; 9330,000; 2300,000; 9240,000;101,29683
1055,12; 9441,000; 2181,000; 9387,000;100,74938
1059,62; 9403,000; 2009,000; 9358,000;100,61233
1064,10;10046,000; 2401,000;10031,000;100,19659
1068,59;10408,000; 2570,000;10411,000;99,96174
1073,07;10499,000; 2356,000;10516,000;99,79167
1077,54;10596,000; 2278,000;10631,000;99,58099
1082,01;11007,000; 2486,000;11025,000;99,78920
1086,48;11261,000; 2488,000;11325,000;99,27577
1090,94;10918,000; 2081,000;10975,000;99,35912
1095,39;12187,000; 3026,000;12290,000;98,88817
1099,85;11732,000; 2345,000;11921,000;98,02632
1104,29;12001,000; 2403,000;12226,000;97,70946
1108,73;11794,000; 2060,000;12064,000;97,30108
1113,17;12565,000; 2768,000;12897,000;96,72228
1117,61;12269,000; 2351,000;12709,000;95,75208
1122,03;12676,000; 2714,000;13178,000;95,20260
1126,46;12322,000; 2237,000;12873,000;94,81948
1130,88;12309,000; 2154,000;12946,000;94,09748
1135,29;12952,000; 2780,000;13624,000;93,80302
1139,70;12490,000; 2109,000;13204,000;93,56467
1144,11;12596,000; 2181,000;13375,000;93,04091
1148,51;12667,000; 2244,000;13522,000;92,41887
1152,90;12694,000; 2301,000;13707,000;91,11871
1157,29;12352,000; 2006,000;13470,000;90,24773
1161,68;12571,000; 2262,000;13824,000;89,16277
1166,06;12470,000; 2248,000;13803,000;88,46387
1170,44;12515,000; 2494,000;13961,000;87,38990
1174,81;11965,000; 2196,000;13387,000;87,29336
1179,18;12196,000; 2339,000;13505,000;88,27691
1183,54;12425,000; 2531,000;13570,000;89,62768
1187,90;12585,000; 2580,000;13523,000;91,42831
1192,25;12303,000; 2379,000;13172,000;91,94849
1196,60;12114,000; 2222,000;12903,000;92,61305
1200,94;12268,000; 2485,000;12994,000;93,09164
1205,28;11942,000; 2285,000;12529,000;94,26982
1209,62;12142,000; 2418,000;12639,000;95,13746
1213,95;12203,000; 2543,000;12596,000;96,09072
1218,27;11721,000; 2113,000;12057,000;96,62108
1222,59;12064,000; 2762,000;12319,000;97,33180
1226,91;11827,000; 2482,000;12036,000;97,81243
1231,22;11455,000; 2269,000;11621,000;98,22498
1235,52;11003,000; 1935,000;11126,000;98,66173
1239,82;11262,000; 2360,000;11354,000;98,97710
1244,12;10860,000; 2191,000;10953,000;98,93860
1248,41;11087,000; 2519,000;11152,000;99,24708
1252,70;10179,000; 1808,000;10246,000;99,20597
1256,98;10439,000; 2069,000;10481,000;99,50071
1261,26;10871,000; 2578,000;10887,000;99,80744
1265,53;10060,000; 1911,000;10040,000;100,24603
1269,80;10233,000; 2085,000;10196,000;100,45617
1274,06;10465,000; 2472,000;10429,000;100,45243
1278,32;10173,000; 2246,000;10116,000;100,72427
1282,57;10207,000; 2315,000;10115,000;101,17949
1286,82; 9992,000; 2159,000; 9878,000;101,47688
1291,06;10120,000; 2434,000; 9974,000;101,93634
1295,30;10058,000; 2354,000; 9886,000;102,28359
1299,53;10218,000; 2461,000;10030,000;102,48382
1303,76;10023,000; 2315,000; 9771,000;103,37983
1307,99;10276,000; 2633,000;10041,000;103,17225
1312,20;10128,000; 2539,000; 9875,000;103,44875
1316,42; 9573,000; 2175,000; 9339,000;103,26633
1320,63; 9519,000; 2246,000; 9303,000;103,06079
1324,83; 9025,000; 1875,000; 8811,000;103,08535
1329,03; 9308,000; 2294,000; 9122,000;102,72408
1333,23; 9010,000; 2137,000; 8853,000;102,33770
1337,42; 9192,000; 2453,000; 9095,000;101,46040
1341,60; 8559,000; 2063,000; 8573,000;99,78495
1345,78; 8698,000; 2407,000; 8779,000;98,72881
1349,96; 8160,000; 1977,000; 8295,000;97,86325
1354,13; 8255,000; 2218,000; 8428,000;97,21417
1358,29; 8004,000; 2040,000; 8181,000;97,11773
1362,46; 8129,000; 2455,000; 8370,000;95,92561
1366,61; 7917,000; 2409,000; 8197,000;95,16240
1370,76; 7470,000; 2106,000; 7751,000;95,02214
1374,91; 7801,000; 2653,000; 8072,000;94,99908
1379,05; 6962,000; 2056,000; 7236,000;94,71042
1383,18; 7786,000; 2983,000; 8057,000;94,65905
1387,32; 6882,000; 2042,000; 7174,000;94,31021
1391,44; 6801,000; 2029,000; 7155,000;93,09403
1395,56; 7716,000; 2838,000; 7994,000;94,60822
1399,68; 6845,000; 1864,000; 7116,000;94,84006
1403,79; 7121,000; 2045,000; 7382,000;95,10961
1407,90; 7061,000; 1975,000; 7279,000;95,88989
1412,00; 7204,000; 2064,000; 7433,000;95,73477
1416,10; 7634,000; 2407,000; 7775,000;97,37332
1420,19; 7294,000; 2106,000; 7422,000;97,59217
1424,27; 7490,000; 2292,000; 7597,000;97,98303
1428,36; 7522,000; 2373,000; 7627,000;98,00152
1432,43; 7664,000; 2538,000; 7760,000;98,16162
1436,50; 7315,000; 2221,000; 7397,000;98,41577
1440,57; 7479,000; 2379,000; 7559,000;98,45560
1444,63; 7127,000; 2054,000; 7190,000;98,77336
1448,69; 6881,000; 1832,000; 6909,000;99,44849
1452,74; 7162,000; 2149,000; 7178,000;99,68185
1456,79; 6917,000; 1924,000; 6934,000;99,66068
1460,83; 7053,000; 2085,000; 7017,000;100,72993
1464,87; 7327,000; 2389,000; 7273,000;101,10565
1468,90; 7336,000; 2366,000; 7250,000;101,76085
1472,93; 7171,000; 2274,000; 7073,000;102,04209
1476,95; 7224,000; 2304,000; 7073,000;103,16628
1480,96; 6876,000; 2026,000; 6740,000;102,88502
1484,98; 7085,000; 2214,000; 6916,000;103,59422
1488,98; 7096,000; 2321,000; 6981,000;102,46781
1492,98; 7131,000; 2415,000; 6974,000;103,44374
1496,98; 6774,000; 2066,000; 6594,000;103,97527
1500,97; 7126,000; 2503,000; 6934,000;104,33311
1504,96; 6500,000; 1869,000; 6310,000;104,27832
1508,94; 7080,000; 2442,000; 6874,000;104,64801
1512,92; 6633,000; 2047,000; 6459,000;103,94379
1516,89; 6719,000; 2181,000; 6559,000;103,65464
1520,85; 6549,000; 2039,000; 6397,000;103,48784
1524,81; 7086,000; 2622,000; 6923,000;103,78982
1528,77; 6482,000; 1993,000; 6335,000;103,38554
1532,72; 6524,000; 2083,000; 6385,000;103,23106
1536,67; 6941,000; 2574,000; 6827,000;102,68046
1540,61; 6278,000; 2053,000; 6158,000;102,92326
1544,54; 6677,000; 2397,000; 6559,000;102,83518
1548,47; 6115,000; 1870,000; 5963,000;103,71366
1552,40; 6514,000; 2311,000; 6340,000;104,31869
1556,32; 6490,000; 2289,000; 6299,000;104,76309
1560,23; 6241,000; 2216,000; 6063,000;104,62698
1564,15; 6336,000; 2266,000; 6123,000;105,52243
1568,05; 6131,000; 2111,000; 5937,000;105,07057
1571,95; 6409,000; 2431,000; 6174,000;106,27839
1575,84; 5995,000; 2066,000; 5767,000;106,16050
1579,73; 6184,000; 2334,000; 5973,000;105,79830
1583,62; 6044,000; 2251,000; 5853,000;105,30261
1587,50; 5709,000; 1973,000; 5552,000;104,38670
1591,37; 6188,000; 2501,000; 6051,000;103,85915
1595,24; 5805,000; 2195,000; 5695,000;103,14286
1599,11; 5528,000; 1935,000; 5426,000;102,92180
1602,96; 5532,000; 2027,000; 5422,000;103,24006
1606,82; 5362,000; 1926,000; 5276,000;102,56716
1610,67; 5548,000; 2202,000; 5507,000;101,24054
1614,51; 5702,000; 2375,000; 5635,000;102,05521
1618,35; 5182,000; 1955,000; 5143,000;101,22334
1622,18; 5332,000; 2163,000; 5307,000;100,79517
1626,01; 5303,000; 2191,000; 5286,000;100,54927
1629,83; 5310,000; 2237,000; 5309,000;100,03255
1633,65; 5357,000; 2363,000; 5411,000;98,22835
1637,46; 4995,000; 2065,000; 5041,000;98,45430
1641,27; 4864,000; 2043,000; 4995,000;95,56233
1645,07; 4765,000; 2025,000; 4923,000;94,54796
1648,86; 4657,000; 2022,000; 4872,000;92,45614
1652,66; 4586,000; 2009,000; 4849,000;90,73944
1656,44; 4547,000; 2080,000; 4866,000;88,54989
1660,22; 4608,000; 2279,000; 5011,000;85,24890
1664,00; 4608,000; 2386,000; 5119,000;81,30260
1667,77; 4258,000; 2147,000; 4820,000;78,97493
1671,53; 4101,000; 2096,000; 4676,000;77,71318
1675,29; 3995,000; 1956,000; 4597,000;77,20560
1679,05; 4210,000; 2235,000; 4841,000;75,78665
1682,80; 4026,000; 2121,000; 4673,000;74,64734
1686,54; 4283,000; 2345,000; 4882,000;76,38944
1690,28; 4300,000; 2330,000; 4848,000;78,23670
1694,01; 3859,000; 1942,000; 4390,000;78,30882
1697,74; 3969,000; 2079,000; 4510,000;77,74578
1701,46; 4099,000; 2282,000; 4676,000;75,89808
1705,18; 3755,000; 2006,000; 4351,000;74,58422
1708,89; 3618,000; 1911,000; 4242,000;73,23037
1712,60; 3907,000; 2253,000; 4569,000;71,41623
1716,30; 3894,000; 2295,000; 4547,000;71,00355
1720,00; 3959,000; 2337,000; 4572,000;72,57271
1723,69; 3893,000; 2261,000; 4469,000;73,91304
1727,38; 3555,000; 1905,000; 4079,000;75,89696
1731,06; 3881,000; 2204,000; 4366,000;77,56707
1734,73; 3837,000; 2153,000; 4269,000;79,58412
1738,40; 3709,000; 1998,000; 4086,000;81,94444
1742,07; 4102,000; 2398,000; 4492,000;81,37536
1745,73; 3757,000; 2036,000; 4113,000;82,85989
1749,38; 3994,000; 2316,000; 4333,000;83,19286
1753,03; 4010,000; 2360,000; 4336,000;83,50202
1756,67; 3804,000; 2169,000; 4109,000;84,27835
1760,31; 3931,000; 2287,000; 4202,000;85,84856
1763,94; 3852,000; 2226,000; 4114,000;86,12288
1767,57; 3827,000; 2202,000; 4056,000;87,64833
1771,19; 3657,000; 2090,000; 3874,000;87,83632
1774,81; 3818,000; 2248,000; 4032,000;88,00448
1778,42; 3825,000; 2269,000; 4027,000;88,50967
1782,03; 3640,000; 2095,000; 3823,000;89,40972
1785,63; 3555,000; 2035,000; 3722,000;90,10077
1789,22; 3604,000; 2111,000; 3791,000;88,86905
1792,81; 3435,000; 1992,000; 3582,000;90,75472
1796,40; 3338,000; 1886,000; 3487,000;90,69332
1799,98; 3902,000; 2449,000; 4025,000;92,19543
1803,55; 3613,000; 2183,000; 3731,000;92,37726
1807,12; 3458,000; 2061,000; 3579,000;92,02899
1810,68; 4089,000; 2694,000; 4197,000;92,81437
1814,24; 3363,000; 1955,000; 3431,000;95,39295
1817,79; 3817,000; 2464,000; 3918,000;93,05365
1821,34; 3956,000; 2605,000; 4045,000;93,81944
1824,88; 3347,000; 2018,000; 3427,000;94,32221
1828,41; 3624,000; 2289,000; 3672,000;96,52928
1831,94; 3463,000; 2125,000; 3487,000;98,23789
1835,47; 3206,000; 1906,000; 3243,000;97,23261
1838,99; 3574,000; 2296,000; 3612,000;97,11246
1842,50; 3385,000; 2133,000; 3433,000;96,30769
1846,01; 3248,000; 2020,000; 3270,000;98,24000
1849,51; 3049,000; 1814,000; 3091,000;96,71104
1853,01; 3137,000; 1929,000; 3201,000;94,96855
1856,50; 3941,000; 2700,000; 3984,000;96,65109
1859,99; 3050,000; 1862,000; 3058,000;99,33110
1863,47; 3414,000; 2216,000; 3413,000;100,08354
1866,94; 3130,000; 2005,000; 3183,000;95,50085
1870,41; 3548,000; 2432,000; 3602,000;95,38462
1873,88; 3314,000; 2210,000; 3354,000;96,50350
1877,34; 3625,000; 2493,000; 3625,000;100,00000
1880,79; 3469,000; 2396,000; 3490,000;98,08044
1884,24; 3447,000; 2396,000; 3479,000;97,04524
1887,68; 3032,000; 2020,000; 3039,000;99,31305
1891,12; 2885,000; 1891,000; 2931,000;95,57692
1894,55; 2988,000; 2022,000; 3034,000;95,45455
1897,98; 3226,000; 2272,000; 3275,000;95,11466
1901,40; 2955,000; 2030,000; 3031,000;92,40759

