reference_end_measurement_1904
Integration time [ms]: 100,000
Averaging Nr. [scans]: 1
Smoothing Nr. [pixels]: 0
Data measured with spectrometer [name]: 1204091U1
Wave   ;Sample   ;Dark     ;Reference;Reflectance
[nm]   ;[counts] ;[counts] ;[counts] ;[%]

1014,48; 7044,000; 2159,000; 6686,000;107,90811
1019,01; 7479,000; 2263,000; 7134,000;107,08273
1023,54; 7929,000; 2460,000; 7582,000;106,77470
1028,07; 8046,000; 2357,000; 7740,000;105,68456
1032,59; 8240,000; 2222,000; 7947,000;105,11790
1037,10; 8654,000; 2251,000; 8409,000;103,97856
1041,62; 9021,000; 2335,000; 8775,000;103,81988
1046,12; 9762,000; 2824,000; 9555,000;103,07532
1050,62; 9439,000; 2300,000; 9240,000;102,86744
1055,12; 9564,000; 2181,000; 9387,000;102,45629
1059,62; 9501,000; 2009,000; 9358,000;101,94584
1064,10;10158,000; 2401,000;10031,000;101,66448
1068,59;10515,000; 2570,000;10411,000;101,32636
1073,07;10609,000; 2356,000;10516,000;101,13971
1077,54;10716,000; 2278,000;10631,000;101,01760
1082,01;11104,000; 2486,000;11025,000;100,92517
1086,48;11385,000; 2488,000;11325,000;100,67896
1090,94;11065,000; 2081,000;10975,000;101,01192
1095,39;12342,000; 3026,000;12290,000;100,56131
1099,85;11942,000; 2345,000;11921,000;100,21930
1104,29;12250,000; 2403,000;12226,000;100,24432
1108,73;12076,000; 2060,000;12064,000;100,11995
1113,17;12916,000; 2768,000;12897,000;100,18758
1117,61;12693,000; 2351,000;12709,000;99,84553
1122,03;13211,000; 2714,000;13178,000;100,31537
1126,46;12897,000; 2237,000;12873,000;100,22565
1130,88;12948,000; 2154,000;12946,000;100,01853
1135,29;13644,000; 2780,000;13624,000;100,18443
1139,70;13176,000; 2109,000;13204,000;99,74763
1144,11;13353,000; 2181,000;13375,000;99,80347
1148,51;13506,000; 2244,000;13522,000;99,85813
1152,90;13646,000; 2301,000;13707,000;99,46519
1157,29;13408,000; 2006,000;13470,000;99,45918
1161,68;13738,000; 2262,000;13824,000;99,25618
1166,06;13700,000; 2248,000;13803,000;99,10861
1170,44;13835,000; 2494,000;13961,000;98,90119
1174,81;13293,000; 2196,000;13387,000;99,16004
1179,18;13456,000; 2339,000;13505,000;99,56117
1183,54;13511,000; 2531,000;13570,000;99,46553
1187,90;13506,000; 2580,000;13523,000;99,84465
1192,25;13177,000; 2379,000;13172,000;100,04633
1196,60;12912,000; 2222,000;12903,000;100,08426
1200,94;12996,000; 2485,000;12994,000;100,01903
1205,28;12593,000; 2285,000;12529,000;100,62476
1209,62;12653,000; 2418,000;12639,000;100,13697
1213,95;12648,000; 2543,000;12596,000;100,51726
1218,27;12136,000; 2113,000;12057,000;100,79445
1222,59;12426,000; 2762,000;12319,000;101,11960
1226,91;12142,000; 2482,000;12036,000;101,10948
1231,22;11728,000; 2269,000;11621,000;101,14414
1235,52;11226,000; 1935,000;11126,000;101,08802
1239,82;11470,000; 2360,000;11354,000;101,28975
1244,12;11065,000; 2191,000;10953,000;101,27825
1248,41;11249,000; 2519,000;11152,000;101,12360
1252,70;10354,000; 1808,000;10246,000;101,27992
1256,98;10579,000; 2069,000;10481,000;101,16500
1261,26;10981,000; 2578,000;10887,000;101,13130
1265,53;10152,000; 1911,000;10040,000;101,37778
1269,80;10304,000; 2085,000;10196,000;101,33153
1274,06;10551,000; 2472,000;10429,000;101,53324
1278,32;10231,000; 2246,000;10116,000;101,46125
1282,57;10236,000; 2315,000;10115,000;101,55128
1286,82;10010,000; 2159,000; 9878,000;101,71007
1291,06;10140,000; 2434,000; 9974,000;102,20159
1295,30;10069,000; 2354,000; 9886,000;102,42963
1299,53;10215,000; 2461,000;10030,000;102,44418
1303,76; 9994,000; 2315,000; 9771,000;102,99088
1307,99;10267,000; 2633,000;10041,000;103,05076
1312,20;10130,000; 2539,000; 9875,000;103,47601
1316,42; 9600,000; 2175,000; 9339,000;103,64322
1320,63; 9565,000; 2246,000; 9303,000;103,71263
1324,83; 9087,000; 1875,000; 8811,000;103,97924
1329,03; 9431,000; 2294,000; 9122,000;104,52548
1333,23; 9103,000; 2137,000; 8853,000;103,72245
1337,42; 9342,000; 2453,000; 9095,000;103,71876
1341,60; 8820,000; 2063,000; 8573,000;103,79416
1345,78; 9039,000; 2407,000; 8779,000;104,08035
1349,96; 8553,000; 1977,000; 8295,000;104,08357
1354,13; 8687,000; 2218,000; 8428,000;104,17069
1358,29; 8429,000; 2040,000; 8181,000;104,03843
1362,46; 8636,000; 2455,000; 8370,000;104,49704
1366,61; 8485,000; 2409,000; 8197,000;104,97581
1370,76; 8076,000; 2106,000; 7751,000;105,75731
1374,91; 8407,000; 2653,000; 8072,000;106,18195
1379,05; 7618,000; 2056,000; 7236,000;107,37452
1383,18; 8468,000; 2983,000; 8057,000;108,10012
1387,32; 7570,000; 2042,000; 7174,000;107,71629
1391,44; 7550,000; 2029,000; 7155,000;107,70581
1395,56; 8373,000; 2838,000; 7994,000;107,35066
1399,68; 7493,000; 1864,000; 7116,000;107,17822
1403,79; 7758,000; 2045,000; 7382,000;107,04516
1407,90; 7677,000; 1975,000; 7279,000;107,50377
1412,00; 7809,000; 2064,000; 7433,000;107,00317
1416,10; 8158,000; 2407,000; 7775,000;107,13487
1420,19; 7812,000; 2106,000; 7422,000;107,33634
1424,27; 7981,000; 2292,000; 7597,000;107,23845
1428,36; 8006,000; 2373,000; 7627,000;107,21355
1432,43; 8124,000; 2538,000; 7760,000;106,97051
1436,50; 7743,000; 2221,000; 7397,000;106,68470
1440,57; 7908,000; 2379,000; 7559,000;106,73745
1444,63; 7520,000; 2054,000; 7190,000;106,42523
1448,69; 7253,000; 1832,000; 6909,000;106,77565
1452,74; 7554,000; 2149,000; 7178,000;107,47664
1456,79; 7297,000; 1924,000; 6934,000;107,24551
1460,83; 7406,000; 2085,000; 7017,000;107,88727
1464,87; 7656,000; 2389,000; 7273,000;107,84193
1468,90; 7648,000; 2366,000; 7250,000;108,14906
1472,93; 7503,000; 2274,000; 7073,000;108,96020
1476,95; 7554,000; 2304,000; 7073,000;110,08597
1480,96; 7163,000; 2026,000; 6740,000;108,97327
1484,98; 7354,000; 2214,000; 6916,000;109,31519
1488,98; 7388,000; 2321,000; 6981,000;108,73391
1492,98; 7423,000; 2415,000; 6974,000;109,84865
1496,98; 7023,000; 2066,000; 6594,000;109,47438
1500,97; 7387,000; 2503,000; 6934,000;110,22343
1504,96; 6743,000; 1869,000; 6310,000;109,75006
1508,94; 7342,000; 2442,000; 6874,000;110,55957
1512,92; 6887,000; 2047,000; 6459,000;109,70082
1516,89; 6983,000; 2181,000; 6559,000;109,68479
1520,85; 6839,000; 2039,000; 6397,000;110,14227
1524,81; 7381,000; 2622,000; 6923,000;110,64869
1528,77; 6769,000; 1993,000; 6335,000;109,99539
1532,72; 6823,000; 2083,000; 6385,000;110,18131
1536,67; 7241,000; 2574,000; 6827,000;109,73431
1540,61; 6629,000; 2053,000; 6158,000;111,47381
1544,54; 7002,000; 2397,000; 6559,000;110,64392
1548,47; 6400,000; 1870,000; 5963,000;110,67677
1552,40; 6813,000; 2311,000; 6340,000;111,73989
1556,32; 6750,000; 2289,000; 6299,000;111,24688
1560,23; 6562,000; 2216,000; 6063,000;112,97115
1564,15; 6601,000; 2266,000; 6123,000;112,39305
1568,05; 6424,000; 2111,000; 5937,000;112,72870
1571,95; 6678,000; 2431,000; 6174,000;113,46513
1575,84; 6301,000; 2066,000; 5767,000;114,42853
1579,73; 6511,000; 2334,000; 5973,000;114,78428
1583,62; 6390,000; 2251,000; 5853,000;114,90838
1587,50; 6060,000; 1973,000; 5552,000;114,19391
1591,37; 6595,000; 2501,000; 6051,000;115,32394
1595,24; 6218,000; 2195,000; 5695,000;114,94286
1599,11; 5951,000; 1935,000; 5426,000;115,03867
1602,96; 5955,000; 2027,000; 5422,000;115,69956
1606,82; 5786,000; 1926,000; 5276,000;115,22388
1610,67; 5977,000; 2202,000; 5507,000;114,22088
1614,51; 6133,000; 2375,000; 5635,000;115,27607
1618,35; 5671,000; 1955,000; 5143,000;116,56211
1622,18; 5827,000; 2163,000; 5307,000;116,53944
1626,01; 5827,000; 2191,000; 5286,000;117,47981
1629,83; 5842,000; 2237,000; 5309,000;117,35026
1633,65; 5918,000; 2363,000; 5411,000;116,63386
1637,46; 5615,000; 2065,000; 5041,000;119,28763
1641,27; 5515,000; 2043,000; 4995,000;117,61518
1645,07; 5461,000; 2025,000; 4923,000;118,56453
1648,86; 5415,000; 2022,000; 4872,000;119,05263
1652,66; 5393,000; 2009,000; 4849,000;119,15493
1656,44; 5419,000; 2080,000; 4866,000;119,84925
1660,22; 5591,000; 2279,000; 5011,000;121,22987
1664,00; 5692,000; 2386,000; 5119,000;120,96597
1667,77; 5387,000; 2147,000; 4820,000;121,21212
1671,53; 5250,000; 2096,000; 4676,000;122,24806
1675,29; 5155,000; 1956,000; 4597,000;121,12836
1679,05; 5407,000; 2235,000; 4841,000;121,71911
1682,80; 5232,000; 2121,000; 4673,000;121,90439
1686,54; 5443,000; 2345,000; 4882,000;122,11273
1690,28; 5419,000; 2330,000; 4848,000;122,67673
1694,01; 4961,000; 1942,000; 4390,000;123,32516
1697,74; 5041,000; 2079,000; 4510,000;121,84286
1701,46; 5234,000; 2282,000; 4676,000;123,30827
1705,18; 4909,000; 2006,000; 4351,000;123,79531
1708,89; 4781,000; 1911,000; 4242,000;123,12312
1712,60; 5114,000; 2253,000; 4569,000;123,53195
1716,30; 5102,000; 2295,000; 4547,000;124,64476
1720,00; 5139,000; 2337,000; 4572,000;125,36913
1723,69; 5054,000; 2261,000; 4469,000;126,49457
1727,38; 4644,000; 1905,000; 4079,000;125,98896
1731,06; 4959,000; 2204,000; 4366,000;127,42831
1734,73; 4889,000; 2153,000; 4269,000;129,30057
1738,40; 4725,000; 1998,000; 4086,000;130,60345
1742,07; 5091,000; 2398,000; 4492,000;128,60554
1745,73; 4734,000; 2036,000; 4113,000;129,89889
1749,38; 4975,000; 2316,000; 4333,000;131,82945
1753,03; 4962,000; 2360,000; 4336,000;131,68016
1756,67; 4732,000; 2169,000; 4109,000;132,11340
1760,31; 4811,000; 2287,000; 4202,000;131,80157
1763,94; 4701,000; 2226,000; 4114,000;131,09110
1767,57; 4643,000; 2202,000; 4056,000;131,66127
1771,19; 4487,000; 2090,000; 3874,000;134,36099
1774,81; 4630,000; 2248,000; 4032,000;133,52018
1778,42; 4637,000; 2269,000; 4027,000;134,69852
1782,03; 4438,000; 2095,000; 3823,000;135,59028
1785,63; 4331,000; 2035,000; 3722,000;136,09959
1789,22; 4403,000; 2111,000; 3791,000;136,42857
1792,81; 4215,000; 1992,000; 3582,000;139,81132
1796,40; 4140,000; 1886,000; 3487,000;140,78701
1799,98; 4669,000; 2449,000; 4025,000;140,86294
1803,55; 4367,000; 2183,000; 3731,000;141,08527
1807,12; 4237,000; 2061,000; 3579,000;143,34651
1810,68; 4843,000; 2694,000; 4197,000;142,98071
1814,24; 4080,000; 1955,000; 3431,000;143,97019
1817,79; 4582,000; 2464,000; 3918,000;145,66713
1821,34; 4703,000; 2605,000; 4045,000;145,69444
1824,88; 4088,000; 2018,000; 3427,000;146,91270
1828,41; 4325,000; 2289,000; 3672,000;147,21620
1831,94; 4154,000; 2125,000; 3487,000;148,97210
1835,47; 3909,000; 1906,000; 3243,000;149,81301
1838,99; 4279,000; 2296,000; 3612,000;150,68389
1842,50; 4080,000; 2133,000; 3433,000;149,76923
1846,01; 3928,000; 2020,000; 3270,000;152,64000
1849,51; 3735,000; 1814,000; 3091,000;150,43070
1853,01; 3828,000; 1929,000; 3201,000;149,29245
1856,50; 4617,000; 2700,000; 3984,000;149,29907
1859,99; 3718,000; 1862,000; 3058,000;155,18395
1863,47; 4074,000; 2216,000; 3413,000;155,22139
1866,94; 3825,000; 2005,000; 3183,000;154,49915
1870,41; 4238,000; 2432,000; 3602,000;154,35897
1873,88; 4004,000; 2210,000; 3354,000;156,81818
1877,34; 4297,000; 2493,000; 3625,000;159,36396
1880,79; 4151,000; 2396,000; 3490,000;160,42048
1884,24; 4134,000; 2396,000; 3479,000;160,48015
1887,68; 3729,000; 2020,000; 3039,000;167,71344
1891,12; 3596,000; 1891,000; 2931,000;163,94231
1894,55; 3692,000; 2022,000; 3034,000;165,01976
1897,98; 3955,000; 2272,000; 3275,000;167,79661
1901,40; 3695,000; 2030,000; 3031,000;166,33367

